Neel Temperature Data File
Tuesday, November 17, 2015 - 2:29 PM

Time (S)	Wheatstone (mV)	Temp (mV)
2.61	-0.308	0.928
3.16	-0.325	0.951
3.71	-0.325	0.948
4.26	-0.322	0.939
4.80	-0.314	0.956
5.35	-0.316	0.954
5.89	-0.311	0.951
6.43	-0.304	0.968
6.99	-0.301	0.962
7.53	-0.307	0.965
8.07	-0.305	0.954
8.62	-0.297	0.962
9.16	-0.301	0.965
9.71	-0.299	0.968
10.25	-0.293	0.968
10.79	-0.296	0.956
11.34	-0.289	0.965
11.88	-0.282	0.977
12.43	-0.292	0.968
12.98	-0.296	0.959
13.52	-0.287	0.968
14.07	-0.281	0.968
14.61	-0.289	0.974
15.15	-0.280	0.968
15.70	-0.275	0.968
16.25	-0.269	0.962
16.80	-0.257	0.979
17.36	-0.257	0.965
17.91	-0.247	0.985
18.47	-0.244	0.974
19.02	-0.241	0.977
19.57	-0.242	0.971
20.12	-0.242	0.974
20.67	-0.243	0.977
21.23	-0.236	0.971
21.78	-0.231	0.979
22.33	-0.225	0.974
22.88	-0.220	0.974
23.43	-0.219	0.974
23.99	-0.219	0.979
24.54	-0.219	0.974
25.09	-0.218	0.982
25.64	-0.216	0.979
26.19	-0.211	0.982
26.75	-0.209	0.977
27.31	-0.207	0.979
27.86	-0.204	0.982
28.41	-0.196	0.979
28.96	-0.191	0.974
29.51	-0.178	0.982
30.07	-0.173	0.977
30.62	-0.173	0.974
31.17	-0.171	0.985
31.72	-0.169	0.979
32.27	-0.166	0.985
32.83	-0.161	0.977
33.38	-0.154	0.977
33.93	-0.148	0.974
34.48	-0.144	0.979
35.03	-0.146	0.985
35.59	-0.144	0.991
36.14	-0.144	0.988
36.69	-0.139	0.982
37.24	-0.137	0.985
37.79	-0.131	0.979
38.35	-0.126	0.991
38.90	-0.123	0.988
39.45	-0.123	0.979
40.00	-0.120	0.985
40.55	-0.120	0.988
41.11	-0.118	0.988
41.66	-0.113	0.988
42.21	-0.107	0.982
42.76	-0.101	0.979
43.31	-0.100	0.994
43.87	-0.094	0.988
44.42	-0.091	0.982
44.97	-0.094	0.988
45.52	-0.089	0.979
46.07	-0.088	0.979
46.63	-0.082	0.994
47.18	-0.076	0.985
47.73	-0.074	0.982
48.28	-0.076	0.991
48.83	-0.067	0.991
49.39	-0.067	0.988
49.94	-0.071	0.997
50.49	-0.064	1.000
51.04	-0.057	0.994
51.59	-0.047	1.000
52.15	-0.036	1.005
52.71	-0.040	1.000
53.26	-0.035	0.994
53.81	-0.033	0.994
54.36	-0.027	0.997
54.91	-0.024	0.991
55.47	-0.021	1.005
56.02	-0.020	1.002
56.57	-0.018	1.000
57.12	-0.018	1.008
57.67	-0.013	1.002
58.23	-0.007	1.008
58.78	-0.002	1.000
59.33	0.006	1.011
59.89	0.004	1.005
60.44	0.008	1.005
60.99	0.015	1.017
61.55	0.021	1.025
62.11	0.019	1.017
62.66	0.024	1.017
63.21	0.032	1.014
63.76	0.038	1.020
64.31	0.045	1.002
64.87	0.047	1.011
65.42	0.047	1.017
65.97	0.048	1.005
66.52	0.057	1.023
67.07	0.064	1.028
67.63	0.066	1.008
68.18	0.074	1.020
68.73	0.084	1.017
69.28	0.089	1.040
69.83	0.094	1.034
70.39	0.098	1.017
70.94	0.105	1.020
71.49	0.111	1.023
72.04	0.116	1.023
72.59	0.125	1.031
73.15	0.133	1.023
73.71	0.135	1.025
74.26	0.138	1.031
74.81	0.144	1.023
75.36	0.151	1.020
75.91	0.159	1.031
76.47	0.164	1.031
77.03	0.161	1.023
77.58	0.169	1.034
78.13	0.176	1.028
78.68	0.183	1.034
79.23	0.186	1.028
79.79	0.191	1.028
80.34	0.194	1.037
80.89	0.201	1.034
81.44	0.206	1.040
81.99	0.211	1.028
82.55	0.218	1.040
83.10	0.225	1.025
83.65	0.228	1.043
84.21	0.229	1.034
84.76	0.235	1.031
85.31	0.237	1.028
85.87	0.245	1.028
86.42	0.253	1.034
86.98	0.251	1.037
87.53	0.260	1.048
88.08	0.268	1.045
88.63	0.274	1.040
89.19	0.278	1.037
89.74	0.282	1.031
90.29	0.284	1.048
90.84	0.286	1.045
91.39	0.289	1.040
91.95	0.296	1.045
92.50	0.302	1.040
93.05	0.308	1.040
93.61	0.314	1.045
94.16	0.320	1.054
94.71	0.326	1.048
95.27	0.329	1.060
95.82	0.340	1.048
96.35	0.344	1.048
96.91	0.346	1.045
97.46	0.349	1.051
98.01	0.350	1.051
98.56	0.358	1.060
99.11	0.363	1.043
99.67	0.373	1.054
100.22	0.385	1.057
100.77	0.396	1.054
101.32	0.400	1.071
101.87	0.407	1.066
102.43	0.401	1.060
102.98	0.396	1.060
103.53	0.403	1.063
104.08	0.405	1.068
104.63	0.416	1.066
105.19	0.427	1.068
105.74	0.431	1.068
106.29	0.436	1.063
106.84	0.439	1.068
107.39	0.441	1.074
107.95	0.445	1.066
108.50	0.450	1.066
109.05	0.454	1.077
109.60	0.459	1.077
110.15	0.467	1.066
110.71	0.476	1.071
111.26	0.481	1.071
111.81	0.487	1.071
112.36	0.491	1.077
112.91	0.500	1.074
113.47	0.506	1.077
114.02	0.516	1.077
114.57	0.524	1.074
115.12	0.539	1.091
115.67	0.552	1.080
116.23	0.558	1.074
116.78	0.562	1.071
117.33	0.570	1.074
117.88	0.568	1.091
118.43	0.571	1.083
118.99	0.576	1.077
119.54	0.583	1.077
120.09	0.607	1.074
120.64	0.619	1.080
121.18	0.620	1.077
121.74	0.627	1.080
122.29	0.638	1.071
122.84	0.645	1.086
123.39	0.658	1.080
123.95	0.660	1.077
124.50	0.666	1.074
125.05	0.664	1.083
125.60	0.665	1.080
126.15	0.667	1.083
126.71	0.671	1.086
127.26	0.677	1.074
127.81	0.682	1.083
128.36	0.687	1.083
128.91	0.693	1.086
129.47	0.695	1.089
130.02	0.697	1.094
130.57	0.700	1.083
131.12	0.701	1.097
131.68	0.703	1.097
132.23	0.708	1.097
132.78	0.715	1.094
133.34	0.724	1.097
133.89	0.727	1.091
134.44	0.726	1.100
134.99	0.732	1.091
135.55	0.735	1.089
136.10	0.741	1.091
136.65	0.745	1.103
137.20	0.749	1.091
137.75	0.750	1.109
138.29	0.745	1.099
138.84	0.740	1.089
139.39	0.745	1.097
139.95	0.747	1.106
140.50	0.754	1.100
141.05	0.766	1.103
141.60	0.774	1.109
142.15	0.782	1.106
142.71	0.815	1.117
143.27	0.829	1.112
143.82	0.842	1.097
144.37	0.850	1.103
144.92	0.854	1.117
145.48	0.855	1.114
146.03	0.857	1.120
146.59	0.862	1.114
147.14	0.869	1.106
147.69	0.873	1.112
148.24	0.875	1.120
148.79	0.877	1.112
149.35	0.883	1.114
149.91	0.896	1.114
150.46	0.904	1.114
151.01	0.907	1.117
151.56	0.910	1.120
152.11	0.913	1.123
152.67	0.912	1.114
153.22	0.918	1.112
153.77	0.925	1.114
154.32	0.930	1.114
154.88	0.929	1.117
155.43	0.937	1.117
155.99	0.948	1.120
156.54	0.948	1.120
157.09	0.966	1.126
157.64	0.965	1.126
158.20	0.967	1.123
158.75	0.973	1.123
159.31	0.981	1.129
159.86	0.980	1.123
160.41	0.964	1.114
160.96	0.958	1.129
161.51	0.959	1.120
162.07	0.960	1.123
162.62	0.966	1.126
163.17	0.968	1.120
163.73	0.975	1.126
164.27	0.979	1.126
164.82	0.982	1.132
165.37	0.989	1.126
165.92	0.991	1.126
166.47	0.997	1.123
167.03	1.003	1.123
167.58	1.008	1.120
168.13	1.013	1.117
168.68	1.019	1.129
169.23	1.025	1.137
169.79	1.027	1.129
170.34	1.028	1.135
170.89	1.032	1.126
171.44	1.039	1.123
171.99	1.044	1.129
172.55	1.050	1.126
173.10	1.059	1.126
173.65	1.076	1.135
174.20	1.077	1.126
174.75	1.082	1.135
175.31	1.087	1.132
175.87	1.094	1.129
176.42	1.100	1.137
176.97	1.103	1.132
177.52	1.109	1.155
178.12	1.107	1.147
178.67	1.078	1.135
179.32	1.072	1.145
179.96	1.071	1.128
180.52	1.076	1.141
181.08	1.078	1.151
181.64	1.082	1.143
182.19	1.085	1.152
182.75	1.096	1.141
183.31	1.097	1.143
183.87	1.097	1.140
184.41	1.098	1.141
184.96	1.101	1.149
185.51	1.107	1.143
186.07	1.113	1.152
186.62	1.118	1.149
187.17	1.122	1.146
187.73	1.128	1.152
188.27	1.131	1.146
188.81	1.135	1.154
189.35	1.139	1.160
189.91	1.146	1.149
190.46	1.148	1.155
191.01	1.153	1.163
191.56	1.153	1.166
192.12	1.161	1.166
192.68	1.168	1.166
193.23	1.173	1.158
193.78	1.177	1.163
194.34	1.189	1.161
194.88	1.192	1.163
195.43	1.216	1.169
195.99	1.228	1.155
196.54	1.241	1.166
197.09	1.244	1.169
197.64	1.252	1.163
198.19	1.253	1.166
198.75	1.253	1.163
199.30	1.256	1.169
199.85	1.256	1.169
200.40	1.264	1.163
200.95	1.264	1.169
201.51	1.272	1.169
202.06	1.277	1.160
202.61	1.280	1.175
203.16	1.286	1.172
203.71	1.296	1.166
204.27	1.296	1.158
204.82	1.297	1.166
205.37	1.299	1.169
205.92	1.305	1.166
206.47	1.305	1.169
207.03	1.301	1.178
207.59	1.290	1.178
208.14	1.287	1.169
208.69	1.294	1.169
209.24	1.295	1.166
209.79	1.301	1.172
210.34	1.315	1.172
210.89	1.321	1.178
211.44	1.329	1.178
211.99	1.336	1.175
212.55	1.342	1.178
213.10	1.350	1.178
213.67	1.361	1.182
214.30	1.380	1.182
214.85	1.413	1.180
215.39	1.434	1.169
215.95	1.444	1.178
216.50	1.450	1.175
217.05	1.455	1.180
217.60	1.458	1.180
218.15	1.459	1.180
218.71	1.460	1.172
219.26	1.463	1.178
219.81	1.467	1.178
220.36	1.463	1.178
220.91	1.462	1.180
221.47	1.455	1.180
222.02	1.444	1.172
222.57	1.433	1.180
223.12	1.417	1.195
223.67	1.411	1.180
224.21	1.399	1.187
224.78	1.392	1.198
225.33	1.396	1.183
225.88	1.391	1.195
226.43	1.399	1.192
226.99	1.401	1.201
227.54	1.408	1.189
228.09	1.425	1.187
228.65	1.425	1.189
229.20	1.435	1.180
229.75	1.444	1.201
230.31	1.451	1.192
230.86	1.458	1.195
231.41	1.466	1.201
231.96	1.473	1.198
232.51	1.493	1.209
233.07	1.495	1.198
233.62	1.509	1.206
234.17	1.511	1.212
234.72	1.515	1.209
235.27	1.523	1.201
235.83	1.531	1.206
236.41	1.535	1.208
236.96	1.542	1.206
237.51	1.545	1.203
238.07	1.554	1.209
238.63	1.560	1.212
239.19	1.567	1.212
239.74	1.574	1.212
240.30	1.576	1.213
240.85	1.589	1.218
241.40	1.591	1.217
242.02	1.601	1.221
242.56	1.607	1.230
243.13	1.614	1.211
243.70	1.622	1.208
244.24	1.621	1.221
244.79	1.634	1.215
245.35	1.639	1.221
245.88	1.645	1.221
246.43	1.654	1.218
246.99	1.658	1.218
247.55	1.667	1.209
248.10	1.675	1.229
248.65	1.675	1.215
249.19	1.688	1.221
249.73	1.692	1.218
250.27	1.702	1.218
250.83	1.714	1.226
251.38	1.722	1.232
251.93	1.735	1.224
252.48	1.737	1.221
253.06	1.742	1.227
253.61	1.752	1.215
254.16	1.758	1.229
254.70	1.762	1.221
255.30	1.768	1.227
255.85	1.773	1.224
256.40	1.777	1.224
256.94	1.784	1.231
257.49	1.792	1.224
258.07	1.797	1.224
258.60	1.803	1.227
259.14	1.809	1.227
259.71	1.816	1.221
260.27	1.821	1.221
260.81	1.829	1.226
261.35	1.835	1.224
261.90	1.843	1.218
262.44	1.847	1.224
262.99	1.850	1.229
263.53	1.855	1.238
264.07	1.859	1.226
264.62	1.868	1.226
265.16	1.875	1.232
265.71	1.876	1.226
266.25	1.889	1.229
266.79	1.890	1.224
267.33	1.896	1.233
267.86	1.909	1.227
268.41	1.918	1.232
268.95	1.920	1.232
269.50	1.929	1.221
270.06	1.933	1.232
270.62	1.941	1.244
271.16	1.950	1.241
271.71	1.963	1.232
272.25	1.967	1.238
272.79	1.976	1.235
273.34	1.977	1.232
273.87	1.984	1.230
274.43	1.989	1.247
274.99	1.995	1.229
275.53	2.001	1.235
276.08	2.007	1.252
276.62	2.011	1.241
277.16	2.014	1.247
277.71	2.022	1.241
278.25	2.029	1.241
278.79	2.035	1.244
279.35	2.042	1.249
279.91	2.045	1.255
280.45	2.055	1.241
280.99	2.056	1.255
281.54	2.066	1.252
282.08	2.073	1.264
282.63	2.079	1.267
283.17	2.084	1.252
283.71	2.086	1.258
284.26	2.096	1.267
284.80	2.100	1.255
285.35	2.107	1.258
285.89	2.122	1.261
286.43	2.126	1.264
286.98	2.131	1.258
287.52	2.140	1.258
288.07	2.149	1.258
288.61	2.155	1.264
289.15	2.161	1.264
289.70	2.171	1.270
290.24	2.175	1.270
290.79	2.192	1.270
291.33	2.188	1.270
291.87	2.192	1.264
292.42	2.200	1.272
292.96	2.201	1.275
293.51	2.207	1.264
294.05	2.212	1.272
294.59	2.217	1.275
295.14	2.224	1.267
295.68	2.228	1.267
296.23	2.234	1.278
296.77	2.239	1.270
297.31	2.243	1.270
297.86	2.252	1.267
298.40	2.257	1.270
298.95	2.264	1.270
299.49	2.267	1.270
300.03	2.276	1.270
300.58	2.277	1.272
301.12	2.286	1.270
301.67	2.287	1.270
302.21	2.298	1.270
302.75	2.305	1.278
303.30	2.307	1.275
303.84	2.318	1.270
304.39	2.318	1.272
304.93	2.327	1.267
305.47	2.332	1.272
306.02	2.344	1.284
306.56	2.351	1.281
307.11	2.357	1.270
307.66	2.364	1.278
308.20	2.369	1.275
308.75	2.377	1.281
309.29	2.384	1.287
309.83	2.390	1.272
310.38	2.396	1.290
310.92	2.397	1.281
311.47	2.405	1.295
312.01	2.410	1.295
312.55	2.418	1.284
313.10	2.423	1.293
313.64	2.427	1.278
314.19	2.437	1.293
314.73	2.437	1.290
315.27	2.447	1.295
315.83	2.454	1.284
316.37	2.456	1.295
316.91	2.467	1.301
317.46	2.473	1.298
318.00	2.473	1.295
318.55	2.482	1.295
319.09	2.487	1.295
319.63	2.488	1.295
320.18	2.499	1.293
320.72	2.506	1.298
321.27	2.507	1.313
321.81	2.515	1.310
322.35	2.523	1.315
322.90	2.526	1.313
323.44	2.532	1.310
323.99	2.548	1.304
324.54	2.551	1.310
325.09	2.553	1.304
325.63	2.560	1.313
326.18	2.567	1.315
326.72	2.577	1.310
327.27	2.584	1.321
327.82	2.591	1.318
328.37	2.593	1.307
328.92	2.599	1.310
329.47	2.608	1.313
330.03	2.610	1.315
330.58	2.615	1.330
331.13	2.621	1.315
331.68	2.628	1.315
332.23	2.632	1.327
332.78	2.637	1.315
333.32	2.650	1.324
333.87	2.653	1.330
334.41	2.659	1.321
334.95	2.663	1.313
335.50	2.668	1.313
336.04	2.676	1.321
336.59	2.683	1.321
337.13	2.688	1.315
337.67	2.695	1.321
338.22	2.700	1.327
338.76	2.704	1.330
339.31	2.713	1.315
339.85	2.715	1.318
340.39	2.720	1.318
340.94	2.724	1.321
341.48	2.732	1.324
342.03	2.741	1.330
342.57	2.746	1.333
343.11	2.755	1.315
343.66	2.763	1.341
344.20	2.765	1.330
344.75	2.771	1.330
345.29	2.778	1.341
345.83	2.783	1.341
346.38	2.788	1.333
346.92	2.791	1.333
347.47	2.801	1.338
348.01	2.806	1.341
348.55	2.809	1.341
349.10	2.815	1.353
349.64	2.820	1.344
350.19	2.828	1.338
350.73	2.830	1.344
351.27	2.842	1.336
351.81	2.847	1.343
352.36	2.850	1.343
352.91	2.858	1.361
353.47	2.862	1.336
354.02	2.866	1.347
354.57	2.872	1.359
355.12	2.874	1.344
355.67	2.886	1.361
356.23	2.888	1.350
356.78	2.893	1.356
357.33	2.899	1.361
357.88	2.905	1.364
358.43	2.914	1.353
358.99	2.920	1.353
359.54	2.927	1.379
360.09	2.933	1.361
360.64	2.937	1.361
361.19	2.943	1.364
361.75	2.945	1.361
362.30	2.951	1.356
362.85	2.951	1.361
363.40	2.962	1.364
363.95	2.962	1.350
364.51	2.964	1.364
365.06	2.966	1.367
365.61	2.967	1.359
366.16	2.972	1.364
366.71	2.973	1.359
367.27	2.974	1.364
367.82	2.979	1.367
368.37	2.976	1.370
368.92	2.976	1.361
369.47	2.978	1.364
370.03	2.980	1.356
370.58	2.984	1.350
371.13	2.984	1.370
371.68	2.990	1.361
372.23	2.995	1.370
372.79	2.990	1.356
373.34	2.990	1.367
373.89	2.991	1.361
374.44	2.991	1.361
374.99	2.995	1.370
375.55	2.997	1.367
376.10	3.000	1.359
376.65	2.999	1.359
377.20	3.002	1.364
377.75	3.002	1.367
378.31	3.003	1.367
378.86	3.005	1.364
379.41	3.008	1.367
379.96	3.005	1.364
380.51	3.012	1.353
381.07	3.011	1.370
381.62	3.018	1.370
382.17	3.016	1.370
382.73	3.022	1.367
383.28	3.024	1.364
383.83	3.027	1.367
384.39	3.033	1.361
384.94	3.034	1.367
385.49	3.042	1.373
386.04	3.041	1.367
386.59	3.049	1.370
387.15	3.049	1.373
387.68	3.054	1.364
388.24	3.058	1.364
388.79	3.056	1.376
389.35	3.064	1.379
389.90	3.064	1.373
390.45	3.069	1.367
391.00	3.075	1.367
391.55	3.072	1.373
392.09	3.081	1.364
392.64	3.085	1.370
393.18	3.084	1.373
393.72	3.093	1.367
394.27	3.094	1.376
394.83	3.094	1.367
395.38	3.101	1.367
395.93	3.100	1.370
396.49	3.102	1.370
397.05	3.108	1.370
397.60	3.108	1.370
398.15	3.112	1.376
398.71	3.119	1.370
399.26	3.119	1.376
399.85	3.123	1.367
400.39	3.127	1.373
400.95	3.128	1.367
401.51	3.138	1.373
402.07	3.136	1.370
402.63	3.141	1.376
403.18	3.146	1.379
403.73	3.146	1.379
404.32	3.154	1.384
404.86	3.154	1.376
405.42	3.161	1.382
405.97	3.165	1.382
406.52	3.167	1.379
407.07	3.170	1.387
407.63	3.172	1.382
408.19	3.177	1.384
408.74	3.183	1.387
409.46	3.188	1.378
410.02	3.191	1.387
410.58	3.194	1.376
411.13	3.199	1.390
411.69	3.203	1.382
412.25	3.209	1.396
412.79	3.210	1.398
413.34	3.213	1.384
414.06	3.221	1.388
414.79	3.223	1.390
415.32	3.229	1.389
415.88	3.234	1.405
416.43	3.236	1.390
416.99	3.244	1.407
417.57	3.245	1.407
418.12	3.255	1.399
418.67	3.253	1.396
419.23	3.256	1.399
419.79	3.261	1.402
420.34	3.263	1.399
420.89	3.272	1.405
421.44	3.282	1.405
421.99	3.282	1.390
422.55	3.287	1.384
423.10	3.291	1.405
423.65	3.302	1.396
424.20	3.307	1.399
424.75	3.313	1.393
425.31	3.315	1.410
425.86	3.317	1.413
426.41	3.319	1.413
426.96	3.324	1.405
427.51	3.327	1.407
428.07	3.332	1.413
428.63	3.334	1.402
429.18	3.336	1.407
429.73	3.337	1.410
430.28	3.341	1.413
430.83	3.344	1.413
431.39	3.345	1.413
431.94	3.350	1.407
432.49	3.353	1.410
433.04	3.361	1.407
433.60	3.360	1.410
434.14	3.369	1.416
434.68	3.369	1.410
435.23	3.372	1.416
435.77	3.374	1.413
436.31	3.379	1.416
436.86	3.386	1.413
437.40	3.386	1.413
437.95	3.397	1.405
438.49	3.396	1.416
439.03	3.404	1.419
439.58	3.406	1.425
440.13	3.411	1.413
440.67	3.414	1.416
441.22	3.417	1.419
441.76	3.422	1.410
442.31	3.424	1.416
442.85	3.432	1.413
443.39	3.437	1.422
443.94	3.439	1.410
444.48	3.447	1.416
445.03	3.448	1.413
445.57	3.455	1.419
446.11	3.460	1.419
446.66	3.461	1.419
447.20	3.472	1.425
447.75	3.472	1.428
448.29	3.480	1.428
448.83	3.486	1.425
449.38	3.486	1.419
449.92	3.494	1.428
450.47	3.495	1.425
451.01	3.502	1.425
451.55	3.506	1.410
452.10	3.509	1.416
452.63	3.515	1.413
453.18	3.524	1.413
453.78	3.520	1.410
454.42	3.534	1.426
454.96	3.534	1.425
455.51	3.537	1.425
456.05	3.550	1.439
456.59	3.549	1.428
457.14	3.553	1.428
457.68	3.567	1.419
458.23	3.566	1.416
458.81	3.569	1.430
459.36	3.579	1.422
459.91	3.581	1.436
460.45	3.583	1.430
460.99	3.595	1.419
461.54	3.597	1.430
462.08	3.600	1.430
462.63	3.611	1.425
463.17	3.612	1.413
463.71	3.616	1.436
464.27	3.622	1.439
464.89	3.627	1.430
465.43	3.639	1.434
465.98	3.639	1.436
466.52	3.646	1.448
467.07	3.651	1.439
467.61	3.655	1.430
468.15	3.658	1.433
468.70	3.665	1.436
469.24	3.667	1.448
469.79	3.678	1.450
470.33	3.680	1.436
470.87	3.686	1.445
471.42	3.690	1.445
471.96	3.694	1.450
472.51	3.699	1.465
473.05	3.704	1.445
473.59	3.712	1.445
474.14	3.718	1.445
474.68	3.720	1.448
475.23	3.725	1.462
475.78	3.726	1.450
476.35	3.730	1.462
476.97	3.735	1.461
477.59	3.740	1.468
478.14	3.747	1.456
478.68	3.751	1.453
479.24	3.759	1.448
479.78	3.760	1.465
480.32	3.767	1.456
480.88	3.771	1.465
481.45	3.775	1.456
481.99	3.784	1.450
482.54	3.789	1.465
483.08	3.803	1.459
483.63	3.806	1.462
484.17	3.818	1.465
484.71	3.830	1.454
485.25	3.832	1.459
485.79	3.834	1.459
486.34	3.835	1.462
486.88	3.839	1.462
487.43	3.842	1.465
487.97	3.849	1.473
488.51	3.853	1.465
489.06	3.857	1.471
489.60	3.863	1.468
490.15	3.867	1.465
490.72	3.872	1.468
491.26	3.876	1.459
491.80	3.880	1.468
492.35	3.881	1.459
492.89	3.887	1.473
493.43	3.890	1.465
493.98	3.893	1.479
494.52	3.901	1.471
495.07	3.903	1.468
495.61	3.910	1.473
496.15	3.910	1.479
496.70	3.918	1.476
497.26	3.922	1.465
497.80	3.928	1.479
498.35	3.934	1.465
498.89	3.936	1.468
499.43	3.945	1.465
499.98	3.946	1.468
500.52	3.957	1.471
501.07	3.957	1.468
501.61	3.964	1.479
502.16	3.969	1.482
502.71	3.973	1.485
503.25	3.981	1.482
503.79	3.985	1.479
504.34	3.994	1.496
504.88	3.997	1.488
505.43	3.998	1.488
505.97	4.011	1.496
506.51	4.012	1.491
507.06	4.020	1.485
507.60	4.027	1.482
508.15	4.029	1.496
508.69	4.036	1.496
509.23	4.038	1.494
509.89	4.041	1.497
510.63	4.047	1.477
511.18	4.056	1.491
511.72	4.061	1.494
512.27	4.065	1.499
512.81	4.072	1.499
513.35	4.075	1.488
513.90	4.080	1.505
514.44	4.093	1.508
514.99	4.092	1.499
515.53	4.096	1.496
516.07	4.106	1.502
516.62	4.107	1.511
517.16	4.114	1.508
517.71	4.119	1.511
518.26	4.120	1.496
518.80	4.127	1.505
519.35	4.132	1.514
519.89	4.135	1.505
520.43	4.143	1.514
520.98	4.150	1.514
521.52	4.150	1.499
522.07	4.158	1.511
522.61	4.160	1.508
523.15	4.169	1.505
523.71	4.167	1.514
524.25	4.172	1.502
524.79	4.185	1.502
525.34	4.189	1.502
525.88	4.184	1.511
526.43	4.199	1.496
526.97	4.192	1.505
527.51	4.202	1.511
528.06	4.209	1.514
528.60	4.210	1.519
529.15	4.218	1.511
529.69	4.224	1.505
530.23	4.223	1.511
530.78	4.234	1.511
531.32	4.232	1.514
531.87	4.238	1.517
532.41	4.253	1.511
532.95	4.246	1.514
533.50	4.260	1.517
534.06	4.258	1.511
534.59	4.254	1.526
535.14	4.258	1.508
535.68	4.279	1.514
536.23	4.272	1.519
536.77	4.282	1.519
537.31	4.291	1.531
537.86	4.282	1.514
538.40	4.303	1.522
538.95	4.299	1.517
539.49	4.302	1.517
540.03	4.316	1.517
540.59	4.312	1.511
541.13	4.339	1.517
541.67	4.343	1.519
542.22	4.350	1.528
542.79	4.346	1.511
543.33	4.353	1.528
543.87	4.356	1.517
544.42	4.363	1.525
544.96	4.363	1.514
545.51	4.353	1.517
546.05	4.368	1.519
546.65	4.374	1.522
547.23	4.362	1.523
547.77	4.381	1.522
548.31	4.399	1.534
548.86	4.382	1.522
549.40	4.395	1.534
549.95	4.405	1.528
550.49	4.390	1.528
551.03	4.412	1.519
551.58	4.408	1.522
552.12	4.404	1.519
552.67	4.430	1.528
553.21	4.410	1.525
553.76	4.430	1.528
554.31	4.420	1.522
554.85	4.444	1.534
555.39	4.429	1.522
555.94	4.447	1.525
556.48	4.455	1.540
557.03	4.445	1.522
557.57	4.471	1.542
558.11	4.463	1.525
558.66	4.463	1.545
559.20	4.477	1.542
559.75	4.469	1.540
560.29	4.492	1.554
560.83	4.490	1.531
561.38	4.488	1.545
561.92	4.501	1.534
562.47	4.510	1.542
563.01	4.495	1.548
563.55	4.514	1.540
564.10	4.521	1.545
564.64	4.509	1.542
565.19	4.538	1.548
565.73	4.522	1.548
566.27	4.543	1.545
566.82	4.544	1.551
567.36	4.533	1.542
567.91	4.560	1.545
568.45	4.558	1.545
568.99	4.552	1.551
569.54	4.574	1.548
570.08	4.558	1.551
570.63	4.582	1.565
571.17	4.581	1.554
571.71	4.571	1.557
572.26	4.594	1.554
572.80	4.597	1.557
573.35	4.586	1.545
573.89	4.611	1.565
574.43	4.614	1.562
574.98	4.601	1.554
575.52	4.617	1.557
576.07	4.610	1.557
576.61	4.637	1.560
577.15	4.634	1.560
577.70	4.628	1.562
578.24	4.645	1.554
578.79	4.649	1.562
579.33	4.634	1.557
579.87	4.652	1.557
580.42	4.662	1.560
580.96	4.652	1.568
581.51	4.664	1.557
582.05	4.662	1.560
582.59	4.686	1.551
583.14	4.681	1.562
583.68	4.671	1.562
584.23	4.693	1.560
584.77	4.699	1.557
585.31	4.684	1.562
585.87	4.670	1.562
586.47	4.695	1.557
587.02	4.707	1.554
587.57	4.725	1.560
588.12	4.725	1.562
588.67	4.737	1.565
589.23	4.734	1.565
589.78	4.745	1.560
590.33	4.730	1.571
590.88	4.733	1.565
591.43	4.735	1.565
591.99	4.762	1.571
592.54	4.762	1.562
593.09	4.772	1.560
593.64	4.772	1.568
594.19	4.781	1.560
594.75	4.777	1.568
595.30	4.774	1.568
595.85	4.777	1.562
596.40	4.780	1.562
596.96	4.799	1.565
597.51	4.793	1.560
598.07	4.814	1.568
598.62	4.817	1.560
599.17	4.836	1.574
599.71	4.837	1.566
600.26	4.836	1.571
600.81	4.853	1.565
601.36	4.845	1.571
601.91	4.837	1.568
602.47	4.839	1.574
603.02	4.839	1.565
603.57	4.850	1.568
604.12	4.870	1.568
604.67	4.866	1.574
605.23	4.876	1.565
605.78	4.872	1.568
606.33	4.877	1.568
606.88	4.868	1.577
607.43	4.866	1.574
607.99	4.869	1.557
608.54	4.892	1.574
609.09	4.889	1.562
609.64	4.898	1.568
610.19	4.904	1.585
610.75	4.905	1.571
611.30	4.914	1.574
611.85	4.899	1.574
612.40	4.899	1.571
612.95	4.911	1.565
613.51	4.928	1.571
614.06	4.927	1.580
614.61	4.941	1.580
615.16	4.938	1.577
615.71	4.947	1.571
616.27	4.951	1.580
616.82	4.938	1.583
617.37	4.939	1.583
617.92	4.943	1.574
618.47	4.957	1.585
619.03	4.965	1.588
619.58	4.973	1.585
620.13	4.964	1.574
620.68	4.984	1.577
621.23	4.975	1.594
621.79	4.967	1.588
622.34	4.975	1.583
622.89	4.973	1.574
623.44	4.995	1.588
623.99	5.001	1.583
624.55	5.009	1.585
625.10	5.008	1.594
625.65	5.017	1.574
626.20	5.012	1.600
626.75	5.001	1.580
627.31	5.011	1.588
627.86	5.016	1.585
628.41	5.026	1.594
628.96	5.042	1.588
629.51	5.040	1.597
630.07	5.042	1.597
630.62	5.055	1.591
631.17	5.037	1.588
631.73	5.036	1.600
632.28	5.068	1.603
632.84	5.065	1.591
633.39	5.076	1.588
633.95	5.073	1.585
634.50	5.084	1.597
635.06	5.068	1.591
635.61	5.073	1.603
636.16	5.097	1.594
636.71	5.095	1.603
637.27	5.099	1.603
637.82	5.106	1.600
638.37	5.105	1.608
638.92	5.094	1.603
639.47	5.099	1.608
640.03	5.098	1.594
640.58	5.116	1.606
641.14	5.132	1.605
641.69	5.113	1.608
642.24	5.113	1.611
642.79	5.121	1.602
643.35	5.138	1.606
643.90	5.143	1.611
644.45	5.156	1.608
645.00	5.147	1.606
645.55	5.158	1.608
646.11	5.160	1.606
646.66	5.142	1.611
647.21	5.155	1.608
647.76	5.157	1.603
648.31	5.172	1.614
648.87	5.181	1.614
649.42	5.187	1.611
649.97	5.186	1.608
650.52	5.196	1.623
651.07	5.186	1.611
651.63	5.182	1.614
652.17	5.208	1.617
652.72	5.205	1.611
653.27	5.216	1.608
653.83	5.197	1.606
654.38	5.221	1.617
654.93	5.227	1.611
655.48	5.242	1.611
656.03	5.237	1.614
656.59	5.249	1.611
657.14	5.250	1.608
657.69	5.242	1.614
658.24	5.255	1.608
658.79	5.232	1.611
659.35	5.240	1.606
659.90	5.252	1.620
660.45	5.270	1.608
661.00	5.288	1.669
661.55	5.288	1.611
662.11	5.289	1.608
662.66	5.293	1.614
663.21	5.292	1.608
663.76	5.302	1.608
664.31	5.312	1.611
664.87	5.324	1.617
665.42	5.329	1.611
665.97	5.330	1.611
666.52	5.333	1.611
667.07	5.335	1.614
667.63	5.333	1.608
668.18	5.328	1.614
668.73	5.324	1.608
669.28	5.327	1.611
669.83	5.326	1.614
670.39	5.324	1.611
670.94	5.319	1.606
671.49	5.318	1.611
672.04	5.324	1.608
672.59	5.330	1.608
673.15	5.339	1.617
673.70	5.344	1.617
674.25	5.335	1.617
674.80	5.329	1.608
675.35	5.329	1.611
675.91	5.329	1.608
676.46	5.337	1.614
677.01	5.335	1.611
677.56	5.343	1.611
678.11	5.352	1.611
678.67	5.346	1.611
679.22	5.348	1.608
679.77	5.353	1.611
680.32	5.354	1.614
680.87	5.356	1.611
681.43	5.358	1.614
681.98	5.360	1.611
682.53	5.362	1.608
683.08	5.367	1.614
683.63	5.368	1.614
684.19	5.368	1.614
684.74	5.377	1.608
685.29	5.376	1.614
685.84	5.378	1.608
686.39	5.382	1.614
686.95	5.385	1.617
687.50	5.387	1.611
688.06	5.389	1.614
688.61	5.390	1.614
689.16	5.401	1.611
689.76	5.393	1.615
690.31	5.403	1.614
690.87	5.400	1.620
691.42	5.397	1.614
691.97	5.411	1.617
692.52	5.406	1.611
693.07	5.406	1.608
693.63	5.418	1.608
694.18	5.416	1.611
694.73	5.418	1.617
695.28	5.428	1.611
695.82	5.429	1.615
696.38	5.432	1.614
696.93	5.423	1.611
697.49	5.419	1.614
698.05	5.427	1.608
698.61	5.428	1.611
699.16	5.430	1.614
699.71	5.435	1.608
700.27	5.425	1.614
700.82	5.434	1.614
701.37	5.434	1.608
701.92	5.419	1.617
702.47	5.418	1.603
703.03	5.420	1.611
703.58	5.437	1.606
704.13	5.431	1.608
704.68	5.447	1.611
705.23	5.449	1.614
705.79	5.439	1.614
706.34	5.448	1.623
706.89	5.429	1.611
707.44	5.428	1.614
707.99	5.433	1.608
708.55	5.452	1.611
709.10	5.453	1.614
709.65	5.452	1.608
710.20	5.459	1.611
710.75	5.467	1.614
711.31	5.456	1.617
711.86	5.440	1.617
712.41	5.450	1.620
712.96	5.443	1.606
713.52	5.457	1.611
714.07	5.464	1.614
714.63	5.453	1.603
715.18	5.454	1.620
715.73	5.450	1.608
716.28	5.466	1.611
716.83	5.477	1.614
717.39	5.472	1.608
717.95	5.464	1.614
718.55	5.461	1.614
719.10	5.455	1.614
719.65	5.466	1.614
720.20	5.486	1.617
720.74	5.466	1.617
721.29	5.494	1.617
721.84	5.489	1.617
722.39	5.482	1.617
722.95	5.482	1.614
723.51	5.491	1.608
724.07	5.478	1.617
724.60	5.491	1.611
725.15	5.494	1.611
725.71	5.500	1.614
726.26	5.491	1.611
726.81	5.495	1.614
727.36	5.505	1.614
727.92	5.496	1.617
728.47	5.498	1.611
729.03	5.495	1.617
729.58	5.503	1.617
730.13	5.500	1.608
730.68	5.484	1.617
731.23	5.483	1.611
731.79	5.490	1.617
732.34	5.481	1.611
732.89	5.503	1.611
733.44	5.506	1.620
733.99	5.503	1.617
734.55	5.512	1.608
735.10	5.517	1.623
735.65	5.500	1.611
736.20	5.490	1.611
736.75	5.494	1.617
737.31	5.494	1.611
737.86	5.507	1.617
738.41	5.513	1.617
738.96	5.515	1.614
739.51	5.513	1.614
740.07	5.518	1.617
740.62	5.519	1.614
741.17	5.502	1.608
741.72	5.501	1.614
742.27	5.504	1.608
742.83	5.520	1.614
743.38	5.516	1.611
743.93	5.526	1.620
744.48	5.521	1.620
745.03	5.524	1.626
745.59	5.527	1.608
746.14	5.512	1.617
746.69	5.507	1.614
747.24	5.510	1.617
747.79	5.529	1.611
748.35	5.518	1.618
748.89	5.507	1.608
749.44	5.516	1.611
749.99	5.528	1.608
750.62	5.549	1.619
751.23	5.531	1.611
751.90	5.524	1.624
752.58	5.547	1.611
753.14	5.539	1.614
753.69	5.522	1.611
754.24	5.515	1.603
754.79	5.524	1.620
755.35	5.550	1.626
755.90	5.532	1.614
756.45	5.543	1.611
757.00	5.540	1.614
757.55	5.537	1.600
758.11	5.558	1.617
758.67	5.529	1.608
759.21	5.542	1.611
759.76	5.542	1.608
760.71	5.503	1.619
761.27	5.549	1.614
761.83	5.532	1.614
762.39	5.545	1.614
762.94	5.551	1.614
763.49	5.543	1.614
764.04	5.528	1.617
764.61	5.531	1.611
765.16	5.522	1.615
765.71	5.531	1.611
766.27	5.547	1.623
766.82	5.542	1.611
767.37	5.550	1.608
767.92	5.543	1.620
768.47	5.544	1.614
769.03	5.549	1.608
769.58	5.529	1.617
770.13	5.525	1.611
770.68	5.530	1.611
771.23	5.546	1.608
771.83	5.543	1.611
772.39	5.524	1.617
772.94	5.553	1.614
773.49	5.552	1.620
774.04	5.543	1.611
774.59	5.558	1.617
775.15	5.531	1.617
775.70	5.531	1.606
776.25	5.531	1.614
776.80	5.545	1.617
777.35	5.548	1.614
777.91	5.551	1.617
778.46	5.548	1.606
779.01	5.552	1.617
779.56	5.540	1.614
780.11	5.531	1.620
780.67	5.528	1.620
781.22	5.532	1.608
781.77	5.545	1.617
782.32	5.552	1.617
782.87	5.547	1.614
783.43	5.549	1.608
783.98	5.546	1.611
784.53	5.530	1.611
785.08	5.529	1.617
785.63	5.532	1.600
786.19	5.539	1.608
786.74	5.554	1.620
787.29	5.549	1.611
787.84	5.553	1.608
788.39	5.546	1.611
788.95	5.553	1.608
789.50	5.530	1.614
790.05	5.531	1.617
790.60	5.535	1.614
791.15	5.554	1.608
791.71	5.543	1.611
792.26	5.552	1.614
792.81	5.547	1.620
793.36	5.550	1.620
793.91	5.553	1.614
794.47	5.530	1.614
795.02	5.529	1.603
795.57	5.529	1.608
796.13	5.545	1.614
796.68	5.529	1.611
797.23	5.531	1.611
797.79	5.527	1.617
798.34	5.531	1.617
798.89	5.546	1.611
799.44	5.547	1.614
799.98	5.545	1.605
800.53	5.541	1.614
801.08	5.556	1.617
801.63	5.529	1.614
802.19	5.526	1.615
802.74	5.532	1.608
803.29	5.548	1.611
803.84	5.537	1.617
804.39	5.547	1.606
804.95	5.540	1.614
805.50	5.543	1.611
806.04	5.541	1.614
806.59	5.539	1.614
807.13	5.519	1.617
807.68	5.548	1.614
808.23	5.529	1.611
808.79	5.525	1.611
809.32	5.541	1.618
809.87	5.556	1.611
810.43	5.537	1.608
810.98	5.539	1.617
811.53	5.541	1.608
812.08	5.545	1.606
812.63	5.537	1.608
813.19	5.520	1.617
813.74	5.520	1.620
814.29	5.518	1.617
814.85	5.531	1.603
815.44	5.534	1.614
815.99	5.535	1.608
816.55	5.531	1.614
817.10	5.536	1.608
817.65	5.532	1.620
818.20	5.514	1.611
818.75	5.517	1.620
819.31	5.515	1.614
819.86	5.530	1.617
820.41	5.527	1.620
820.96	5.529	1.603
821.51	5.528	1.603
822.07	5.528	1.614
822.62	5.509	1.614
823.17	5.517	1.611
823.72	5.517	1.608
824.27	5.528	1.620
824.83	5.522	1.608
825.38	5.533	1.617
825.93	5.521	1.617
826.48	5.529	1.606
827.03	5.512	1.608
827.59	5.507	1.611
828.14	5.503	1.614
828.69	5.518	1.614
829.24	5.520	1.611
829.79	5.524	1.614
830.35	5.531	1.603
830.90	5.530	1.614
831.45	5.512	1.606
832.00	5.501	1.611
832.55	5.504	1.611
833.11	5.511	1.614
833.66	5.521	1.606
834.21	5.513	1.614
834.76	5.520	1.617
835.30	5.515	1.608
835.85	5.503	1.614
836.40	5.495	1.617
836.95	5.498	1.608
837.51	5.513	1.611
838.06	5.509	1.608
838.61	5.519	1.614
839.16	5.506	1.611
839.71	5.518	1.606
840.27	5.510	1.608
840.82	5.497	1.611
841.37	5.493	1.608
841.92	5.499	1.611
842.47	5.512	1.611
843.03	5.506	1.614
843.58	5.510	1.620
844.13	5.506	1.603
844.68	5.504	1.606
845.23	5.494	1.611
845.79	5.495	1.617
846.34	5.493	1.614
846.89	5.506	1.600
847.44	5.504	1.611
847.99	5.509	1.611
848.55	5.502	1.600
849.11	5.508	1.617
849.64	5.498	1.605
850.19	5.511	1.617
850.75	5.486	1.623
851.31	5.507	1.608
851.85	5.480	1.605
852.41	5.495	1.611
853.15	5.521	1.611
853.70	5.521	1.608
854.26	5.504	1.614
854.82	5.485	1.614
855.37	5.481	1.608
855.91	5.496	1.602
856.45	5.462	1.611
857.00	5.503	1.602
857.55	5.482	1.608
858.11	5.493	1.614
858.66	5.497	1.617
859.21	5.495	1.608
859.76	5.490	1.611
860.31	5.496	1.606
860.87	5.470	1.614
861.42	5.481	1.611
861.97	5.481	1.611
862.52	5.510	1.611
863.07	5.493	1.608
863.63	5.482	1.611
864.18	5.491	1.611
864.73	5.481	1.614
865.28	5.468	1.608
865.83	5.467	1.608
866.39	5.465	1.611
866.94	5.493	1.611
867.49	5.490	1.608
868.04	5.481	1.603
868.62	5.485	1.617
869.17	5.469	1.620
869.71	5.482	1.608
870.27	5.456	1.608
870.82	5.454	1.606
871.37	5.471	1.611
871.92	5.481	1.617
872.47	5.481	1.608
873.03	5.479	1.606
873.58	5.474	1.608
874.13	5.466	1.603
874.69	5.468	1.600
875.24	5.473	1.597
875.79	5.468	1.600
876.35	5.473	1.611
876.90	5.452	1.606
877.45	5.459	1.606
878.00	5.454	1.608
878.55	5.461	1.603
879.11	5.466	1.608
879.66	5.461	1.608
880.21	5.463	1.600
880.76	5.458	1.611
881.31	5.441	1.608
881.87	5.447	1.614
882.42	5.443	1.611
882.97	5.468	1.611
883.52	5.466	1.603
884.07	5.457	1.608
884.63	5.462	1.597
885.18	5.456	1.606
885.73	5.441	1.608
886.28	5.437	1.600
886.83	5.440	1.608
887.39	5.455	1.606
887.94	5.452	1.611
888.49	5.465	1.608
889.04	5.456	1.608
889.59	5.455	1.608
890.15	5.434	1.603
890.70	5.431	1.606
891.25	5.432	1.606
891.80	5.447	1.600
892.35	5.444	1.606
892.91	5.448	1.608
893.46	5.449	1.614
894.01	5.454	1.594
894.56	5.447	1.597
895.11	5.435	1.611
895.67	5.441	1.608
896.22	5.437	1.597
896.76	5.445	1.602
897.31	5.431	1.603
897.87	5.426	1.608
898.42	5.429	1.611
898.97	5.444	1.597
899.52	5.433	1.600
900.07	5.443	1.594
900.63	5.432	1.606
901.18	5.439	1.606
901.73	5.419	1.611
902.28	5.416	1.608
902.83	5.418	1.603
903.39	5.433	1.614
903.94	5.433	1.594
904.49	5.437	1.597
905.04	5.431	1.597
905.59	5.433	1.606
906.15	5.412	1.597
906.70	5.410	1.603
907.25	5.412	1.597
907.80	5.423	1.606
908.35	5.430	1.606
908.91	5.425	1.608
909.46	5.429	1.606
910.01	5.423	1.600
910.56	5.408	1.600
911.11	5.405	1.594
911.67	5.423	1.588
912.23	5.429	1.606
912.78	5.408	1.594
913.33	5.404	1.597
913.88	5.403	1.600
914.43	5.402	1.606
914.99	5.424	1.600
915.55	5.390	1.594
916.11	5.408	1.596
916.66	5.421	1.608
917.21	5.411	1.597
917.76	5.391	1.585
918.31	5.396	1.603
918.87	5.393	1.600
919.42	5.403	1.603
919.97	5.403	1.583
920.52	5.402	1.600
921.07	5.406	1.594
921.63	5.392	1.600
922.18	5.407	1.597
922.73	5.383	1.597
923.28	5.375	1.603
923.83	5.379	1.588
924.39	5.393	1.600
924.94	5.387	1.591
925.49	5.398	1.594
926.04	5.394	1.603
926.59	5.399	1.591
927.15	5.378	1.594
927.71	5.380	1.585
928.26	5.391	1.588
928.81	5.387	1.591
929.36	5.383	1.588
929.91	5.367	1.597
930.45	5.388	1.587
931.00	5.369	1.588
931.62	5.400	1.587
932.35	5.373	1.590
932.89	5.372	1.593
933.45	5.362	1.583
934.00	5.361	1.588
934.55	5.369	1.583
935.11	5.378	1.588
935.66	5.377	1.597
936.21	5.382	1.591
936.76	5.367	1.580
937.32	5.351	1.591
937.87	5.344	1.587
938.40	5.365	1.590
938.98	5.382	1.599
939.79	5.355	1.581
940.35	5.366	1.585
940.90	5.329	1.593
941.47	5.357	1.585
942.03	5.351	1.585
942.58	5.360	1.588
943.13	5.351	1.583
943.69	5.334	1.585
944.24	5.359	1.588
944.79	5.347	1.588
945.35	5.354	1.591
945.90	5.337	1.574
946.45	5.334	1.583
947.00	5.346	1.574
947.59	5.344	1.574
948.14	5.343	1.577
948.69	5.348	1.594
949.24	5.340	1.588
949.79	5.347	1.581
950.34	5.337	1.583
950.89	5.341	1.594
951.44	5.336	1.588
951.99	5.350	1.577
952.55	5.329	1.577
953.10	5.320	1.585
953.65	5.318	1.588
954.20	5.333	1.585
954.75	5.333	1.577
955.29	5.309	1.584
955.85	5.298	1.583
956.40	5.346	1.572
956.94	5.322	1.578
957.47	5.330	1.587
958.03	5.311	1.580
958.59	5.327	1.580
959.14	5.326	1.582
959.69	5.335	1.574
960.24	5.323	1.568
960.80	5.333	1.575
961.33	5.295	1.578
961.88	5.304	1.583
962.45	5.320	1.572
962.99	5.316	1.572
963.55	5.295	1.580
964.10	5.293	1.574
964.79	5.298	1.573
965.79	5.298	1.580
966.35	5.290	1.588
966.89	5.285	1.576
967.44	5.304	1.585
967.98	5.273	1.576
968.53	5.283	1.580
969.11	5.304	1.581
969.66	5.298	1.574
970.21	5.283	1.571
970.77	5.303	1.584
971.32	5.301	1.571
971.88	5.300	1.571
972.43	5.288	1.581
972.98	5.254	1.566
973.53	5.297	1.568
974.07	5.306	1.572
974.63	5.314	1.576
975.32	5.309	1.562
975.87	5.303	1.580
976.43	5.278	1.571
977.03	5.265	1.583
977.59	5.287	1.571
978.14	5.293	1.562
978.69	5.296	1.559
979.26	5.294	1.569
979.83	5.284	1.578
980.38	5.298	1.578
980.92	5.282	1.566
981.47	5.266	1.572
982.02	5.255	1.578
982.58	5.286	1.566
983.14	5.256	1.582
983.67	5.254	1.573
984.23	5.262	1.578
984.91	5.291	1.571
985.72	5.285	1.562
986.35	5.266	1.576
986.90	5.287	1.578
987.45	5.233	1.578
988.03	5.281	1.576
988.59	5.277	1.566
989.13	5.280	1.569
989.68	5.261	1.575
990.21	5.282	1.578
990.76	5.258	1.569
991.32	5.251	1.572
991.86	5.253	1.566
992.42	5.249	1.570
992.97	5.243	1.572
993.51	5.275	1.576
994.05	5.267	1.579
994.59	5.233	1.576
995.15	5.247	1.572
995.70	5.246	1.565
996.25	5.247	1.565
996.79	5.212	1.575
997.32	5.227	1.559
997.88	5.242	1.562
998.45	5.226	1.571
998.99	5.231	1.573
999.54	5.218	1.566
1000.10	5.216	1.566
1000.64	5.250	1.566
1001.18	5.210	1.569
1001.74	5.228	1.576
1002.30	5.215	1.572
1002.85	5.236	1.562
1003.42	5.228	1.579
1003.97	5.228	1.576
1004.80	5.210	1.571
1005.37	5.189	1.562
1005.96	5.235	1.569
1006.51	5.236	1.562
1007.09	5.202	1.569
1007.64	5.213	1.562
1008.20	5.200	1.562
1008.75	5.197	1.565
1009.31	5.205	1.560
1009.86	5.215	1.571
1010.41	5.215	1.568
1010.95	5.215	1.569
1011.51	5.207	1.560
1012.06	5.194	1.557
1012.61	5.204	1.568
1013.16	5.195	1.571
1013.72	5.213	1.560
1014.27	5.197	1.565
1014.83	5.189	1.562
1015.38	5.193	1.568
1015.93	5.190	1.568
1016.48	5.174	1.571
1017.03	5.171	1.562
1017.59	5.175	1.565
1018.14	5.194	1.565
1018.69	5.186	1.568
1019.24	5.185	1.571
1019.79	5.182	1.568
1020.35	5.174	1.568
1020.90	5.163	1.557
1021.45	5.165	1.565
1022.00	5.161	1.560
1022.55	5.171	1.565
1023.11	5.167	1.557
1023.66	5.175	1.565
1024.21	5.173	1.568
1024.76	5.171	1.562
1025.31	5.160	1.565
1025.87	5.144	1.565
1026.42	5.151	1.557
1026.97	5.148	1.560
1027.52	5.160	1.565
1028.07	5.152	1.557
1028.63	5.152	1.562
1029.18	5.161	1.565
1029.73	5.156	1.562
1030.28	5.136	1.562
1030.83	5.130	1.568
1031.39	5.133	1.562
1031.94	5.154	1.560
1032.49	5.146	1.568
1033.04	5.142	1.565
1033.59	5.140	1.565
1034.15	5.137	1.560
1034.71	5.135	1.560
1035.26	5.134	1.568
1035.81	5.142	1.560
1036.36	5.141	1.562
1036.91	5.137	1.560
1037.47	5.132	1.562
1038.03	5.126	1.562
1038.59	5.109	1.557
1039.14	5.131	1.562
1039.69	5.128	1.565
1040.24	5.126	1.560
1040.79	5.118	1.577
1041.35	5.114	1.562
1041.90	5.102	1.565
1042.45	5.100	1.565
1043.00	5.096	1.562
1043.55	5.115	1.565
1044.09	5.132	1.566
1044.64	5.114	1.551
1045.20	5.099	1.565
1045.75	5.110	1.562
1046.31	5.100	1.557
1046.86	5.107	1.562
1047.41	5.104	1.557
1047.96	5.106	1.559
1048.51	5.086	1.562
1049.07	5.077	1.565
1049.62	5.077	1.562
1050.17	5.100	1.560
1050.72	5.095	1.565
1051.27	5.092	1.565
1051.83	5.083	1.571
1052.38	5.088	1.575
1052.95	5.083	1.562
1053.58	5.099	1.562
1054.39	5.103	1.543
1054.92	5.071	1.557
1055.68	5.101	1.575
1056.71	5.090	1.562
1058.03	5.062	1.556
1058.59	5.067	1.559
1059.15	5.051	1.569
1059.68	5.054	1.562
1060.22	5.053	1.572
1060.76	5.081	1.556
1061.32	5.059	1.568
1061.87	5.061	1.565
1062.43	5.058	1.565
1062.98	5.060	1.551
1063.53	5.034	1.560
1064.07	5.034	1.559
1064.63	5.051	1.565
1065.21	5.056	1.566
1065.76	5.032	1.562
1066.31	5.028	1.554
1066.87	5.024	1.565
1067.43	5.045	1.565
1067.98	5.036	1.565
1068.52	5.030	1.556
1069.07	5.019	1.556
1069.60	5.034	1.562
1070.15	5.041	1.560
1070.71	5.031	1.562
1071.26	5.036	1.560
1071.81	5.023	1.562
1072.36	5.007	1.562
1072.91	5.012	1.560
1073.47	5.013	1.560
1074.01	5.015	1.569
1074.57	5.008	1.557
1075.12	5.023	1.560
1075.67	5.016	1.548
1076.23	5.013	1.560
1076.76	5.010	1.562
1077.31	5.001	1.548
1077.86	5.001	1.566
1078.40	5.013	1.559
1078.95	4.999	1.554
1079.51	4.984	1.560
1080.07	4.993	1.560
1080.62	4.988	1.560
1081.17	4.998	1.554
1081.72	4.997	1.557
1082.27	4.988	1.554
1082.83	4.994	1.557
1083.38	4.992	1.560
1083.93	4.977	1.557
1084.48	4.976	1.562
1085.03	4.969	1.554
1085.57	4.975	1.553
1086.17	4.982	1.560
1086.72	4.981	1.557
1087.26	4.984	1.553
1087.83	4.982	1.562
1088.38	4.976	1.560
1088.93	4.978	1.557
1089.47	4.955	1.550
1090.03	4.969	1.558
1090.96	4.985	1.556
1091.52	4.965	1.554
1092.07	4.966	1.548
1092.66	4.958	1.560
1093.22	4.964	1.547
1093.77	4.945	1.554
1094.33	4.960	1.554
1094.91	4.962	1.559
1095.46	4.962	1.554
1096.01	4.952	1.554
1096.55	4.951	1.547
1097.10	4.955	1.545
1097.63	4.942	1.550
1098.19	4.940	1.551
1098.74	4.938	1.554
1099.29	4.963	1.540
1099.84	4.949	1.557
1100.39	4.938	1.557
1100.94	4.940	1.553
1101.49	4.936	1.551
1102.04	4.931	1.534
1102.59	4.942	1.551
1103.15	4.934	1.545
1103.71	4.915	1.548
1104.26	4.926	1.548
1104.81	4.930	1.548
1105.35	4.908	1.553
1105.92	4.908	1.542
1106.47	4.925	1.548
1107.03	4.927	1.548
1107.59	4.906	1.534
1108.16	4.915	1.551
1108.71	4.912	1.551
1109.25	4.924	1.544
1109.79	4.921	1.547
1110.35	4.921	1.540
1110.90	4.910	1.537
1111.46	4.908	1.542
1112.00	4.889	1.540
1112.54	4.904	1.550
1113.13	4.903	1.548
1113.68	4.899	1.545
1114.24	4.900	1.542
1114.79	4.898	1.548
1115.34	4.874	1.535
1115.89	4.877	1.548
1116.44	4.874	1.545
1116.99	4.891	1.522
1117.55	4.887	1.534
1118.10	4.883	1.540
1118.65	4.893	1.534
1119.20	4.880	1.528
1119.75	4.859	1.540
1120.31	4.865	1.528
1120.86	4.863	1.540
1121.41	4.880	1.517
1121.96	4.869	1.545
1122.51	4.870	1.537
1123.07	4.876	1.545
1123.62	4.871	1.531
1124.17	4.870	1.540
1124.72	4.848	1.540
1125.28	4.859	1.528
1125.82	4.856	1.544
1126.37	4.863	1.538
1126.92	4.851	1.528
1127.47	4.846	1.537
1128.03	4.842	1.537
1128.58	4.849	1.540
1129.13	4.850	1.531
1129.67	4.828	1.538
1130.21	4.846	1.529
1130.76	4.849	1.519
1131.31	4.843	1.534
1131.87	4.839	1.534
1132.42	4.841	1.522
1132.97	4.829	1.522
1133.52	4.816	1.531
1134.08	4.839	1.537
1134.63	4.834	1.525
1135.19	4.831	1.531
1135.75	4.831	1.537
1136.30	4.822	1.528
1136.85	4.828	1.531
1137.40	4.820	1.522
1137.95	4.805	1.528
1138.51	4.803	1.525
1139.06	4.810	1.517
1139.61	4.817	1.517
1140.16	4.820	1.525
1140.71	4.812	1.514
1141.27	4.815	1.525
1141.82	4.804	1.522
1142.37	4.789	1.522
1142.92	4.790	1.522
1143.47	4.791	1.528
1144.03	4.807	1.519
1144.58	4.805	1.522
1145.14	4.798	1.522
1145.69	4.782	1.514
1146.24	4.799	1.519
1146.79	4.788	1.525
1147.35	4.793	1.522
1147.90	4.784	1.537
1148.45	4.797	1.519
1149.00	4.777	1.519
1149.61	4.779	1.519
1150.15	4.769	1.514
1150.69	4.775	1.517
1151.24	4.774	1.519
1151.79	4.787	1.514
1152.35	4.778	1.525
1152.90	4.784	1.522
1153.45	4.773	1.517
1154.00	4.754	1.525
1154.55	4.747	1.522
1155.11	4.779	1.523
1155.67	4.772	1.514
1156.22	4.756	1.522
1156.76	4.769	1.517
1157.52	4.777	1.520
1158.57	4.734	1.514
1159.26	4.770	1.514
1159.94	4.746	1.510
1160.48	4.765	1.510
1161.16	4.764	1.532
1161.79	4.762	1.523
1162.60	4.729	1.507
1163.19	4.760	1.507
1163.73	4.736	1.514
1164.30	4.722	1.526
1164.85	4.742	1.517
1165.43	4.738	1.522
1166.02	4.728	1.523
1166.55	4.716	1.520
1167.10	4.734	1.514
1167.64	4.726	1.523
1168.22	4.731	1.517
1168.75	4.718	1.511
1169.31	4.724	1.511
1169.85	4.730	1.523
1170.40	4.713	1.511
1170.96	4.716	1.496
1171.52	4.704	1.519
1172.08	4.727	1.523
1172.62	4.694	1.521
1173.42	4.695	1.514
1174.16	4.710	1.517
1174.71	4.707	1.514
1175.27	4.702	1.517
1175.82	4.693	1.514
1176.37	4.683	1.514
1176.92	4.680	1.514
1177.47	4.685	1.517
1178.03	4.702	1.517
1178.63	4.706	1.517
1179.19	4.691	1.514
1179.75	4.683	1.514
1180.30	4.687	1.514
1180.85	4.646	1.511
1181.41	4.681	1.511
1181.96	4.672	1.517
1182.51	4.683	1.511
1183.07	4.674	1.514
1183.62	4.660	1.514
1184.16	4.667	1.511
1184.72	4.671	1.514
1185.27	4.650	1.519
1185.82	4.645	1.517
1186.35	4.653	1.514
1186.90	4.669	1.508
1187.43	4.645	1.510
1187.97	4.638	1.514
1188.51	4.652	1.519
1189.06	4.657	1.519
1189.60	4.640	1.514
1190.15	4.648	1.511
1190.69	4.655	1.508
1191.23	4.638	1.517
1191.78	4.649	1.508
1192.32	4.654	1.505
1192.87	4.634	1.514
1193.41	4.640	1.505
1193.95	4.631	1.511
1194.50	4.645	1.519
1195.04	4.636	1.496
1195.59	4.629	1.517
1196.13	4.642	1.505
1196.67	4.647	1.511
1197.22	4.625	1.511
1197.76	4.630	1.508
1198.31	4.633	1.502
1198.85	4.615	1.511
1199.39	4.620	1.511
1199.93	4.631	1.517
1200.47	4.619	1.514
1201.02	4.611	1.517
1201.56	4.613	1.508
1202.11	4.602	1.502
1202.65	4.610	1.514
1203.19	4.615	1.508
1203.74	4.596	1.508
1204.28	4.608	1.514
1204.83	4.604	1.514
1205.38	4.604	1.511
1205.92	4.589	1.508
1206.47	4.601	1.505
1207.01	4.593	1.514
1207.55	4.589	1.508
1208.10	4.598	1.502
1208.64	4.574	1.508
1209.19	4.577	1.505
1209.73	4.589	1.505
1210.27	4.577	1.505
1210.82	4.577	1.502
1211.36	4.581	1.508
1211.91	4.567	1.505
1212.45	4.584	1.508
1212.99	4.572	1.505
1213.54	4.561	1.508
1214.08	4.574	1.514
1214.63	4.573	1.505
1215.19	4.574	1.502
1215.73	4.571	1.517
1216.27	4.552	1.514
1216.82	4.560	1.505
1217.36	4.559	1.494
1217.91	4.540	1.502
1218.45	4.557	1.508
1218.99	4.546	1.511
1219.54	4.563	1.499
1220.07	4.552	1.505
1220.62	4.546	1.502
1221.15	4.549	1.514
1221.70	4.544	1.514
1222.24	4.528	1.494
1222.79	4.546	1.505
1223.34	4.538	1.508
1223.88	4.542	1.499
1224.43	4.529	1.502
1224.97	4.541	1.505
1225.51	4.519	1.496
1226.06	4.538	1.508
1226.60	4.527	1.502
1227.16	4.511	1.505
1227.72	4.527	1.505
1228.27	4.532	1.502
1228.81	4.513	1.499
1229.35	4.529	1.505
1229.90	4.508	1.517
1230.44	4.534	1.501
1231.02	4.510	1.507
1231.56	4.517	1.499
1232.11	4.508	1.505
1232.66	4.519	1.502
1233.20	4.514	1.496
1233.75	4.497	1.502
1234.28	4.510	1.491
1234.84	4.518	1.492
1235.39	4.508	1.499
1235.95	4.498	1.511
1236.49	4.495	1.496
1237.03	4.479	1.502
1237.58	4.497	1.494
1238.12	4.494	1.505
1238.72	4.463	1.500
1240.14	4.500	1.481
1241.73	4.474	1.497
1242.36	4.483	1.499
1242.92	4.491	1.505
1243.48	4.472	1.494
1244.06	4.452	1.494
1244.62	4.460	1.501
1245.17	4.445	1.489
1245.74	4.477	1.499
1246.31	4.481	1.500
1246.87	4.459	1.491
1247.42	4.449	1.501
1247.95	4.442	1.498
1248.49	4.465	1.498
1249.04	4.455	1.505
1249.63	4.442	1.491
1250.16	4.453	1.498
1250.72	4.443	1.489
1251.26	4.433	1.491
1251.82	4.449	1.508
1252.37	4.440	1.471
1252.91	4.451	1.479
1253.44	4.448	1.489
1254.00	4.445	1.482
1254.54	4.410	1.484
1255.10	4.417	1.501
1255.66	4.425	1.488
1256.22	4.432	1.488
1256.77	4.423	1.496
1257.32	4.425	1.489
1257.88	4.440	1.485
1258.44	4.413	1.476
1259.00	4.440	1.479
1259.55	4.436	1.488
1260.09	4.404	1.495
1260.64	4.422	1.480
1261.21	4.397	1.482
1261.76	4.430	1.488
1262.33	4.429	1.482
1262.87	4.406	1.483
1263.45	4.409	1.485
1263.99	4.397	1.486
1264.56	4.401	1.488
1265.14	4.413	1.471
1265.72	4.413	1.491
1266.26	4.398	1.474
1266.80	4.398	1.474
1267.36	4.395	1.462
1267.90	4.406	1.480
1268.43	4.382	1.471
1269.00	4.396	1.482
1269.54	4.393	1.480
1270.08	4.394	1.480
1270.65	4.388	1.473
1271.21	4.376	1.471
1271.74	4.380	1.480
1272.28	4.373	1.492
1272.83	4.377	1.480
1273.38	4.370	1.480
1273.95	4.369	1.474
1274.49	4.386	1.468
1275.05	4.369	1.482
1275.61	4.368	1.473
1276.15	4.380	1.474
1276.72	4.375	1.480
1277.26	4.369	1.471
1277.82	4.364	1.468
1278.36	4.368	1.473
1278.92	4.374	1.471
1279.47	4.366	1.468
1280.02	4.353	1.477
1280.58	4.359	1.473
1281.15	4.360	1.474
1281.70	4.337	1.474
1282.23	4.344	1.468
1282.81	4.360	1.465
1283.38	4.350	1.474
1283.91	4.347	1.474
1284.47	4.337	1.483
1285.03	4.333	1.474
1285.57	4.340	1.462
1286.11	4.330	1.472
1286.67	4.336	1.471
1287.23	4.349	1.474
1287.78	4.340	1.468
1288.34	4.331	1.479
1288.90	4.348	1.471
1289.44	4.332	1.475
1290.00	4.333	1.471
1290.55	4.317	1.483
1291.09	4.307	1.475
1291.63	4.322	1.471
1292.19	4.319	1.471
1292.75	4.324	1.465
1293.29	4.315	1.462
1293.85	4.331	1.465
1294.41	4.313	1.473
1294.95	4.308	1.468
1295.51	4.299	1.465
1296.07	4.294	1.465
1296.61	4.296	1.471
1297.15	4.301	1.471
1297.71	4.284	1.462
1298.25	4.304	1.473
1298.90	4.298	1.465
1299.45	4.289	1.461
1300.00	4.292	1.473
1300.61	4.278	1.472
1301.31	4.274	1.459
1301.89	4.279	1.471
1302.43	4.296	1.462
1302.98	4.273	1.471
1303.52	4.268	1.476
1304.11	4.283	1.465
1304.67	4.278	1.473
1305.21	4.268	1.465
1305.75	4.265	1.476
1306.30	4.269	1.471
1306.84	4.261	1.459
1307.39	4.273	1.459
1307.93	4.259	1.468
1308.47	4.267	1.468
1309.02	4.256	1.468
1309.56	4.250	1.471
1310.11	4.256	1.462
1310.66	4.266	1.468
1311.20	4.252	1.465
1311.76	4.254	1.465
1312.31	4.250	1.459
1312.85	4.247	1.462
1313.39	4.241	1.465
1313.94	4.245	1.465
1314.48	4.230	1.465
1315.03	4.243	1.462
1315.58	4.241	1.465
1316.12	4.245	1.468
1316.67	4.237	1.465
1317.23	4.240	1.462
1317.76	4.216	1.468
1318.32	4.237	1.450
1318.87	4.227	1.468
1319.41	4.230	1.462
1319.95	4.233	1.468
1320.51	4.224	1.468
1321.06	4.221	1.453
1321.60	4.217	1.456
1322.15	4.225	1.462
1322.69	4.224	1.459
1323.23	4.214	1.465
1323.78	4.214	1.459
1324.33	4.213	1.465
1324.87	4.216	1.462
1325.43	4.209	1.456
1325.98	4.208	1.453
1326.52	4.215	1.465
1327.07	4.217	1.456
1327.62	4.206	1.456
1328.16	4.203	1.459
1328.71	4.204	1.459
1329.25	4.193	1.456
1329.80	4.201	1.462
1330.35	4.196	1.462
1330.89	4.192	1.450
1331.43	4.188	1.448
1331.98	4.189	1.459
1332.52	4.181	1.459
1333.07	4.189	1.459
1333.61	4.185	1.471
1334.15	4.179	1.459
1334.70	4.180	1.450
1335.24	4.184	1.462
1335.79	4.166	1.459
1336.35	4.171	1.453
1336.91	4.168	1.456
1337.45	4.179	1.465
1337.99	4.167	1.465
1338.53	4.166	1.465
1339.09	4.169	1.450
1339.64	4.164	1.453
1340.20	4.168	1.453
1340.75	4.162	1.453
1341.29	4.154	1.459
1341.83	4.150	1.456
1342.41	4.148	1.453
1342.95	4.159	1.450
1343.51	4.154	1.459
1344.07	4.146	1.456
1344.63	4.143	1.456
1345.18	4.140	1.448
1345.73	4.143	1.445
1346.28	4.134	1.453
1346.83	4.147	1.445
1347.39	4.147	1.445
1347.94	4.139	1.456
1348.49	4.132	1.459
1349.04	4.127	1.445
1349.60	4.136	1.448
1350.15	4.138	1.450
1350.71	4.126	1.445
1351.26	4.123	1.456
1351.79	4.111	1.456
1352.34	4.119	1.448
1352.89	4.123	1.442
1353.44	4.122	1.450
1353.98	4.114	1.447
1354.52	4.115	1.448
1355.07	4.107	1.445
1355.61	4.113	1.445
1356.15	4.105	1.448
1356.70	4.104	1.442
1357.24	4.108	1.428
1357.79	4.110	1.436
1358.35	4.101	1.436
1358.89	4.101	1.439
1359.43	4.096	1.442
1359.98	4.104	1.442
1360.52	4.095	1.433
1361.07	4.092	1.439
1361.61	4.096	1.439
1362.15	4.086	1.426
1362.71	4.087	1.445
1363.27	4.084	1.445
1363.82	4.081	1.442
1364.37	4.090	1.433
1364.91	4.088	1.433
1365.46	4.084	1.442
1366.00	4.077	1.442
1366.55	4.081	1.439
1367.08	4.073	1.443
1367.63	4.073	1.442
1368.24	4.068	1.447
1369.16	4.070	1.416
1370.20	4.067	1.465
1370.85	4.067	1.436
1371.61	4.069	1.428
1372.21	4.053	1.424
1372.75	4.049	1.430
1373.32	4.061	1.430
1373.86	4.053	1.425
1374.41	4.048	1.439
1374.96	4.051	1.439
1375.51	4.043	1.428
1376.11	4.044	1.445
1376.64	4.044	1.439
1377.19	4.044	1.425
1377.73	4.047	1.430
1378.29	4.037	1.433
1378.95	4.032	1.420
1379.50	4.029	1.428
1380.04	4.040	1.419
1380.59	4.036	1.436
1381.14	4.030	1.428
1381.68	4.031	1.436
1382.23	4.032	1.430
1382.80	4.018	1.426
1383.35	4.027	1.425
1383.90	4.024	1.428
1384.45	4.018	1.428
1385.02	4.008	1.430
1385.55	4.014	1.428
1386.10	4.021	1.430
1386.64	4.018	1.439
1387.19	4.006	1.430
1387.75	4.006	1.433
1388.30	4.007	1.430
1388.86	4.006	1.416
1389.47	4.011	1.426
1390.02	3.996	1.437
1390.62	4.000	1.419
1391.16	4.001	1.428
1391.71	3.991	1.430
1392.25	3.998	1.445
1392.79	3.992	1.425
1393.35	3.991	1.428
1393.90	3.988	1.428
1394.44	3.985	1.425
1394.99	3.986	1.430
1395.53	3.988	1.416
1396.07	3.992	1.413
1396.62	3.989	1.422
1397.16	3.984	1.422
1397.71	3.978	1.430
1398.25	3.976	1.422
1398.79	3.970	1.422
1399.35	3.967	1.416
1399.89	3.968	1.416
1400.42	3.965	1.425
1400.97	3.965	1.416
1401.52	3.959	1.430
1402.13	3.962	1.422
1402.68	3.959	1.425
1403.23	3.955	1.428
1403.79	3.957	1.422
1404.34	3.956	1.419
1405.23	3.951	1.445
1405.79	3.947	1.419
1406.33	3.949	1.425
1406.87	3.950	1.425
1407.42	3.946	1.416
1407.97	3.950	1.422
1408.51	3.940	1.416
1409.07	3.935	1.436
1409.61	3.929	1.425
1410.15	3.937	1.422
1410.71	3.928	1.422
1411.25	3.935	1.419
1411.80	3.933	1.428
1412.35	3.923	1.419
1412.89	3.920	1.422
1413.44	3.915	1.425
1413.99	3.928	1.422
1414.53	3.924	1.407
1415.07	3.917	1.431
1416.09	3.917	1.424
1416.89	3.909	1.423
1417.44	3.908	1.416
1417.98	3.918	1.424
1419.01	3.907	1.416
1420.55	3.901	1.416
1421.10	3.901	1.410
1421.69	3.898	1.419
1422.42	3.899	1.428
1422.98	3.896	1.419
1423.51	3.894	1.416
1424.05	3.890	1.422
1424.60	3.886	1.416
1425.17	3.888	1.416
1425.80	3.882	1.411
1426.69	3.889	1.416
1427.29	3.887	1.416
1427.99	3.888	1.416
1429.20	3.881	1.416
1429.82	3.879	1.412
1430.38	3.873	1.416
1430.93	3.872	1.413
1431.49	3.871	1.416
1432.04	3.867	1.422
1432.60	3.865	1.416
1433.15	3.862	1.419
1433.71	3.861	1.413
1434.27	3.862	1.407
1434.82	3.863	1.425
1435.38	3.853	1.416
1435.95	3.855	1.416
1436.50	3.857	1.413
1437.06	3.855	1.422
1437.62	3.852	1.416
1438.18	3.846	1.413
1438.74	3.841	1.416
1439.30	3.845	1.416
1439.86	3.847	1.422
1440.42	3.840	1.416
1440.98	3.842	1.410
1441.53	3.838	1.416
1442.09	3.831	1.416
1442.65	3.830	1.410
1443.20	3.831	1.416
1443.76	3.837	1.419
1444.30	3.828	1.419
1444.85	3.826	1.419
1445.40	3.824	1.416
1445.96	3.827	1.416
1446.51	3.823	1.407
1447.06	3.824	1.419
1447.60	3.819	1.413
1448.15	3.821	1.416
1448.68	3.819	1.419
1449.24	3.817	1.413
1449.79	3.812	1.410
1450.34	3.807	1.404
1450.90	3.810	1.413
1451.46	3.804	1.413
1452.01	3.805	1.416
1452.57	3.804	1.413
1453.12	3.811	1.422
1453.67	3.807	1.416
1454.23	3.802	1.410
1454.79	3.798	1.416
1455.34	3.797	1.413
1455.89	3.797	1.419
1456.44	3.793	1.422
1456.99	3.790	1.416
1457.55	3.788	1.416
1458.11	3.785	1.416
1458.66	3.784	1.402
1459.22	3.781	1.422
1459.78	3.781	1.410
1460.33	3.779	1.405
1460.88	3.777	1.422
1461.44	3.779	1.416
1462.01	3.772	1.425
1462.55	3.763	1.413
1463.09	3.767	1.416
1463.64	3.767	1.405
1464.19	3.769	1.413
1464.75	3.766	1.419
1465.31	3.757	1.422
1465.87	3.752	1.413
1466.43	3.761	1.410
1466.99	3.758	1.413
1467.55	3.756	1.410
1468.10	3.757	1.413
1468.66	3.752	1.413
1469.20	3.743	1.420
1469.77	3.741	1.416
1470.31	3.745	1.416
1470.87	3.751	1.407
1471.42	3.743	1.407
1471.98	3.739	1.413
1472.53	3.735	1.407
1473.08	3.739	1.405
1473.63	3.734	1.413
1474.17	3.735	1.403
1474.76	3.732	1.404
1475.32	3.730	1.413
1475.88	3.730	1.407
1476.43	3.729	1.416
1476.97	3.728	1.392
1477.51	3.727	1.403
1478.07	3.725	1.402
1478.63	3.724	1.399
1479.19	3.725	1.413
1479.75	3.726	1.410
1480.31	3.727	1.416
1480.87	3.726	1.399
1481.43	3.724	1.419
1481.99	3.720	1.399
1482.54	3.718	1.402
1483.09	3.716	1.405
1483.64	3.714	1.405
1484.18	3.710	1.406
1484.71	3.708	1.404
1485.27	3.704	1.403
1485.81	3.702	1.416
1486.38	3.702	1.395
1486.94	3.699	1.396
1487.47	3.695	1.413
1488.04	3.698	1.398
1488.58	3.695	1.401
1489.11	3.687	1.406
1489.67	3.686	1.399
1490.23	3.689	1.393
1490.79	3.690	1.410
1491.34	3.690	1.405
1491.89	3.683	1.407
1492.44	3.676	1.402
1492.98	3.674	1.395
1493.53	3.683	1.405
1494.08	3.681	1.407
1494.64	3.675	1.396
1495.19	3.676	1.399
1495.75	3.674	1.393
1496.30	3.670	1.390
1496.86	3.668	1.390
1497.41	3.670	1.410
1497.96	3.665	1.393
1498.51	3.662	1.387
1499.07	3.660	1.402
1499.63	3.660	1.390
1500.18	3.660	1.405
1500.74	3.656	1.393
1501.30	3.652	1.399
1501.85	3.651	1.396
1502.40	3.651	1.399
1502.96	3.651	1.399
1503.52	3.652	1.379
1504.07	3.647	1.390
1504.63	3.646	1.390
1505.19	3.643	1.387
1505.74	3.640	1.390
1506.29	3.639	1.393
1506.84	3.637	1.393
1507.40	3.644	1.382
1508.48	3.638	1.389
1509.03	3.631	1.392
1509.59	3.631	1.382
1510.15	3.631	1.379
1510.71	3.627	1.384
1511.27	3.626	1.390
1511.80	3.625	1.389
1512.36	3.622	1.376
1513.04	3.620	1.396
1513.60	3.621	1.404
1515.03	3.608	1.416
1515.59	3.614	1.384
1516.15	3.614	1.370
1516.70	3.608	1.379
1517.25	3.607	1.385
1517.80	3.602	1.381
1518.35	3.605	1.384
1518.91	3.603	1.382
1519.46	3.599	1.390
1520.02	3.598	1.382
1520.59	3.597	1.396
1521.14	3.597	1.370
1521.69	3.595	1.382
1522.24	3.591	1.373
1522.79	3.587	1.384
1523.35	3.586	1.393
1523.93	3.588	1.376
1524.48	3.581	1.387
1525.03	3.586	1.379
1525.59	3.580	1.382
1526.15	3.577	1.382
1526.70	3.577	1.379
1527.25	3.573	1.376
1527.80	3.576	1.379
1528.35	3.572	1.376
1528.91	3.571	1.373
1529.46	3.570	1.373
1530.01	3.566	1.382
1530.56	3.569	1.379
1531.11	3.566	1.384
1531.67	3.564	1.384
1532.22	3.562	1.379
1532.77	3.563	1.382
1533.32	3.561	1.367
1533.88	3.559	1.379
1534.43	3.555	1.379
1534.99	3.555	1.367
1535.54	3.550	1.379
1536.09	3.548	1.379
1536.65	3.545	1.376
1537.20	3.544	1.379
1537.75	3.540	1.379
1538.31	3.541	1.373
1538.86	3.550	1.393
1539.41	3.550	1.367
1539.97	3.545	1.367
1540.52	3.539	1.379
1541.06	3.535	1.379
1541.61	3.533	1.370
1542.16	3.531	1.364
1542.71	3.528	1.373
1543.27	3.527	1.379
1543.83	3.526	1.370
1544.38	3.522	1.370
1544.93	3.521	1.370
1545.48	3.518	1.387
1546.03	3.516	1.376
1546.59	3.513	1.361
1547.15	3.515	1.370
1547.70	3.515	1.370
1548.25	3.511	1.373
1548.80	3.502	1.370
1549.35	3.502	1.376
1549.91	3.506	1.367
1550.46	3.507	1.370
1550.99	3.502	1.370
1551.55	3.498	1.370
1552.11	3.495	1.370
1552.67	3.497	1.384
1553.22	3.494	1.367
1553.77	3.492	1.373
1554.32	3.488	1.373
1554.87	3.492	1.367
1555.43	3.488	1.370
1555.99	3.487	1.367
1556.54	3.486	1.364
1557.09	3.483	1.370
1557.64	3.486	1.373
1558.19	3.481	1.373
1558.75	3.480	1.367
1559.31	3.476	1.367
1559.86	3.477	1.364
1560.41	3.477	1.367
1560.97	3.475	1.373
1561.52	3.472	1.370
1562.08	3.469	1.364
1562.63	3.467	1.376
1563.19	3.468	1.376
1563.74	3.466	1.373
1564.29	3.463	1.370
1564.84	3.460	1.376
1565.39	3.459	1.367
1565.95	3.461	1.367
1566.50	3.457	1.367
1567.05	3.454	1.370
1567.61	3.453	1.361
1568.16	3.448	1.370
1568.71	3.453	1.376
1569.27	3.448	1.373
1569.82	3.446	1.373
1570.37	3.443	1.373
1570.92	3.441	1.364
1571.47	3.441	1.379
1572.03	3.438	1.367
1572.58	3.438	1.376
1573.11	3.435	1.370
1573.67	3.431	1.367
1574.23	3.432	1.370
1574.78	3.430	1.367
1575.33	3.430	1.373
1575.88	3.425	1.359
1576.44	3.421	1.367
1577.00	3.423	1.367
1577.56	3.421	1.359
1578.11	3.420	1.364
1578.67	3.415	1.367
1579.23	3.414	1.364
1579.79	3.417	1.364
1580.32	3.414	1.364
1580.88	3.414	1.359
1581.49	3.411	1.364
1582.05	3.410	1.359
1582.61	3.412	1.361
1583.18	3.408	1.367
1583.74	3.410	1.367
1584.30	3.405	1.370
1584.86	3.404	1.367
1585.42	3.403	1.370
1585.98	3.401	1.367
1586.54	3.399	1.370
1587.07	3.392	1.367
1587.61	3.393	1.367
1588.16	3.394	1.370
1588.71	3.392	1.367
1589.27	3.390	1.364
1589.83	3.386	1.367
1590.38	3.387	1.359
1590.93	3.385	1.356
1591.49	3.383	1.356
1592.04	3.380	1.373
1592.60	3.377	1.367
1593.15	3.379	1.364
1593.71	3.377	1.370
1594.26	3.373	1.364
1594.81	3.373	1.356
1595.36	3.368	1.370
1595.91	3.371	1.361
1596.47	3.368	1.361
1597.03	3.367	1.361
1597.58	3.364	1.367
1598.14	3.362	1.364
1598.69	3.366	1.359
1599.25	3.359	1.367
1599.80	3.359	1.364
1600.35	3.355	1.359
1600.91	3.353	1.361
1601.46	3.355	1.361
1602.01	3.351	1.353
1602.56	3.350	1.350
1603.11	3.346	1.364
1603.67	3.345	1.370
1604.23	3.348	1.361
1604.79	3.344	1.364
1605.34	3.341	1.367
1605.89	3.336	1.367
1606.44	3.338	1.364
1606.99	3.338	1.356
1607.55	3.335	1.370
1608.11	3.334	1.364
1608.67	3.328	1.364
1609.23	3.333	1.359
1609.79	3.329	1.367
1610.35	3.326	1.361
1610.91	3.324	1.359
1611.47	3.321	1.364
1612.03	3.327	1.356
1612.59	3.321	1.367
1613.12	3.321	1.364
1613.66	3.315	1.364
1614.21	3.315	1.359
1614.75	3.315	1.358
1615.30	3.311	1.355
1615.86	3.311	1.361
1616.42	3.305	1.361
1616.97	3.311	1.356
1617.53	3.305	1.364
1618.09	3.305	1.361
1618.65	3.301	1.353
1619.21	3.298	1.356
1619.77	3.305	1.356
1620.31	3.296	1.364
1620.87	3.295	1.356
1621.43	3.291	1.353
1622.29	3.290	1.363
1622.83	3.291	1.357
1623.37	3.289	1.350
1623.93	3.288	1.356
1624.49	3.285	1.361
1625.05	3.288	1.364
1625.61	3.283	1.344
1626.17	3.282	1.359
1626.73	3.277	1.356
1627.29	3.279	1.350
1627.85	3.277	1.356
1628.41	3.276	1.353
1628.97	3.273	1.353
1629.53	3.270	1.359
1630.09	3.271	1.359
1630.65	3.268	1.359
1631.21	3.266	1.359
1631.76	3.263	1.358
1632.32	3.261	1.355
1632.88	3.260	1.352
1633.43	3.259	1.352
1633.99	3.257	1.349
1634.54	3.253	1.359
1635.10	3.256	1.361
1635.66	3.258	1.353
1636.22	3.260	1.344
1636.78	3.258	1.350
1637.31	3.254	1.352
1637.87	3.251	1.347
1638.43	3.249	1.356
1638.99	3.246	1.356
1639.55	3.243	1.353
1640.11	3.240	1.344
1640.67	3.238	1.344
1641.23	3.238	1.353
1641.79	3.235	1.347
1642.35	3.232	1.347
1642.91	3.230	1.341
1643.47	3.229	1.350
1644.03	3.230	1.344
1644.59	3.227	1.330
1645.15	3.218	1.350
1645.71	3.222	1.344
1646.27	3.224	1.356
1646.83	3.219	1.344
1647.39	3.216	1.338
1647.95	3.217	1.338
1648.51	3.218	1.338
1649.05	3.212	1.351
1649.61	3.210	1.341
1650.17	3.211	1.341
1650.71	3.210	1.337
1651.27	3.206	1.359
1651.83	3.206	1.347
1652.39	3.207	1.336
1652.95	3.201	1.338
1653.51	3.200	1.336
1654.07	3.198	1.344
1654.63	3.198	1.338
1655.19	3.199	1.330
1655.75	3.195	1.341
1656.31	3.192	1.347
1656.87	3.189	1.330
1657.43	3.192	1.338
1657.99	3.186	1.333
1658.55	3.187	1.327
1659.11	3.181	1.336
1659.67	3.184	1.341
1660.23	3.181	1.341
1660.79	3.179	1.341
1661.35	3.176	1.328
1661.89	3.176	1.337
1662.45	3.176	1.336
1663.01	3.172	1.336
1663.57	3.171	1.338
1664.13	3.169	1.336
1664.69	3.172	1.327
1665.25	3.168	1.330
1665.81	3.165	1.338
1666.37	3.162	1.333
1666.93	3.162	1.330
1667.49	3.163	1.333
1668.05	3.158	1.338
1668.61	3.159	1.333
1669.17	3.154	1.333
1669.73	3.158	1.338
1670.29	3.152	1.333
1670.83	3.153	1.334
1671.39	3.150	1.324
1671.95	3.151	1.336
1672.51	3.149	1.327
1673.05	3.145	1.328
1673.61	3.147	1.333
1674.17	3.139	1.327
1674.73	3.145	1.327
1675.27	3.141	1.324
1675.83	3.138	1.327
1676.36	3.136	1.324
1676.91	3.133	1.334
1677.47	3.138	1.324
1678.00	3.133	1.331
1678.56	3.133	1.334
1679.11	3.125	1.318
1679.67	3.130	1.333
1680.23	3.128	1.336
1680.79	3.126	1.321
1681.35	3.122	1.333
1681.91	3.119	1.327
1682.47	3.123	1.330
1683.03	3.120	1.321
1683.59	3.118	1.318
1684.12	3.111	1.328
1684.68	3.104	1.318
1685.24	3.105	1.315
1685.80	3.105	1.330
1686.36	3.116	1.330
1686.91	3.111	1.331
1687.47	3.104	1.315
1688.03	3.104	1.324
1688.59	3.103	1.333
1689.15	3.102	1.318
1689.71	3.100	1.321
1690.27	3.102	1.321
1690.83	3.095	1.324
1691.39	3.100	1.321
1691.95	3.098	1.324
1692.51	3.095	1.321
1693.07	3.095	1.324
1693.63	3.093	1.324
1694.19	3.089	1.324
1694.75	3.086	1.327
1695.31	3.084	1.318
1695.87	3.084	1.333
1696.43	3.080	1.321
1696.99	3.078	1.324
1697.55	3.078	1.315
1698.11	3.085	1.321
1698.67	3.085	1.324
1699.23	3.082	1.327
1699.79	3.078	1.313
1700.35	3.074	1.327
1700.91	3.067	1.324
1701.47	3.067	1.321
1702.03	3.066	1.321
1702.59	3.065	1.327
1703.15	3.063	1.318
1703.71	3.060	1.324
1704.27	3.061	1.321
1704.83	3.056	1.321
1705.39	3.056	1.324
1705.95	3.055	1.324
1706.51	3.053	1.324
1707.07	3.046	1.327
1707.63	3.051	1.318
1708.19	3.055	1.315
1708.75	3.045	1.313
1709.31	3.038	1.327
1709.87	3.046	1.324
1710.43	3.043	1.324
1710.99	3.045	1.318
1711.55	3.036	1.324
1712.11	3.027	1.310
1712.67	3.029	1.318
1713.21	3.039	1.318
1713.77	3.030	1.324
1714.32	3.030	1.315
1714.88	3.028	1.318
1715.44	3.031	1.324
1716.00	3.027	1.318
1716.56	3.022	1.321
1717.12	3.018	1.315
1717.68	3.015	1.315
1718.24	3.024	1.307
1718.80	3.023	1.318
1719.36	3.019	1.313
1719.93	3.017	1.321
1720.49	3.013	1.324
1721.05	3.016	1.315
1721.59	3.015	1.315
1722.12	3.004	1.309
1722.68	3.001	1.310
1723.22	3.000	1.324
1723.78	3.005	1.313
1724.34	3.010	1.315
1724.90	3.002	1.318
1725.46	3.003	1.321
1725.99	2.997	1.318
1726.53	2.992	1.315
1727.07	2.993	1.312
1727.61	2.991	1.318
1728.17	2.995	1.336
1728.71	2.987	1.321
1729.30	2.989	1.309
1729.86	2.989	1.321
1730.42	2.985	1.313
1730.98	2.983	1.310
1731.54	2.980	1.318
1732.10	2.978	1.324
1732.64	2.979	1.315
1733.20	2.977	1.315
1733.76	2.974	1.315
1735.06	2.968	1.306
1735.93	2.972	1.338
1736.48	2.970	1.307
1737.04	2.977	1.313
1737.60	2.973	1.307
1738.16	2.970	1.315
1738.74	2.968	1.321
1739.29	2.966	1.310
1739.83	2.964	1.312
1740.37	2.961	1.315
1740.94	2.957	1.307
1741.50	2.956	1.315
1742.06	2.954	1.310
1742.62	2.952	1.310
1743.17	2.950	1.318
1743.74	2.948	1.303
1744.30	2.948	1.318
1744.84	2.948	1.309
1745.40	2.942	1.315
1745.94	2.946	1.321
1746.49	2.943	1.309
1747.05	2.946	1.313
1747.59	2.939	1.323
1748.20	2.936	1.290
1748.88	2.943	1.312
1749.44	2.936	1.315
1750.00	2.937	1.305
1750.57	2.934	1.303
1751.15	2.925	1.315
1751.69	2.922	1.327
1752.25	2.925	1.307
1752.79	2.935	1.306
1753.35	2.928	1.310
1753.89	2.923	1.306
1754.45	2.921	1.307
1754.99	2.919	1.309
1755.55	2.925	1.301
1756.09	2.914	1.296
1756.96	2.918	1.318
1757.52	2.915	1.301
1758.06	2.913	1.294
1758.62	2.911	1.304
1759.18	2.909	1.315
1759.72	2.906	1.302
1760.28	2.906	1.301
1760.84	2.903	1.309
1761.45	2.903	1.306
1761.99	2.901	1.305
1762.64	2.899	1.315
1763.19	2.900	1.297
1763.72	2.896	1.288
1764.28	2.906	1.290
1764.84	2.901	1.293
1765.40	2.900	1.287
1765.95	2.897	1.300
1766.51	2.893	1.301
1767.07	2.889	1.298
1767.63	2.889	1.295
1768.19	2.885	1.295
1768.77	2.882	1.299
1769.45	2.882	1.304
1770.14	2.880	1.288
1770.68	2.876	1.294
1771.23	2.878	1.298
1771.79	2.879	1.291
1772.33	2.871	1.302
1772.88	2.864	1.297
1773.66	2.870	1.291
1775.02	2.867	1.296
1775.90	2.860	1.294
1778.53	2.852	1.343
1781.47	2.844	1.294
1782.03	2.845	1.300
1782.58	2.856	1.296
1783.12	2.846	1.291
1784.26	2.845	1.283
1785.49	2.836	1.283
1786.15	2.837	1.286
1786.69	2.835	1.297
1787.25	2.835	1.284
1787.81	2.832	1.304
1788.37	2.830	1.290
1788.93	2.827	1.293
1789.47	2.826	1.276
1790.02	2.825	1.288
1790.57	2.822	1.285
1791.13	2.820	1.292
1791.67	2.819	1.290
1792.21	2.820	1.270
1792.77	2.819	1.281
1793.33	2.815	1.278
1793.91	2.817	1.281
1794.49	2.818	1.278
1795.74	2.815	1.318
1796.28	2.816	1.282
1796.84	2.813	1.278
1797.38	2.813	1.285
1797.95	2.809	1.280
1798.51	2.807	1.284
1799.07	2.804	1.290
1799.63	2.800	1.272
1800.19	2.801	1.281
1800.76	2.797	1.275
1801.31	2.798	1.278
1801.86	2.790	1.282
1802.42	2.793	1.281
1802.98	2.796	1.275
1803.54	2.787	1.278
1804.07	2.782	1.277
1804.63	2.792	1.275
1805.19	2.788	1.272
1805.75	2.785	1.275
1806.31	2.785	1.275
1806.87	2.784	1.281
1807.42	2.786	1.276
1807.98	2.779	1.272
1808.51	2.774	1.279
1809.07	2.771	1.275
1809.63	2.772	1.283
1810.19	2.784	1.287
1810.75	2.779	1.278
1811.31	2.772	1.278
1811.87	2.771	1.270
1812.43	2.768	1.272
1812.99	2.774	1.272
1813.55	2.770	1.275
1814.11	2.767	1.281
1814.67	2.766	1.275
1815.23	2.765	1.275
1815.79	2.764	1.278
1816.35	2.761	1.270
1816.91	2.759	1.278
1817.47	2.758	1.281
1818.03	2.755	1.275
1818.59	2.754	1.278
1819.15	2.753	1.281
1819.71	2.749	1.275
1820.27	2.750	1.275
1820.83	2.746	1.281
1821.39	2.748	1.281
1821.95	2.747	1.270
1822.51	2.754	1.270
1823.07	2.750	1.275
1823.63	2.748	1.275
1824.19	2.744	1.278
1824.75	2.742	1.275
1825.31	2.737	1.281
1825.87	2.738	1.281
1826.43	2.736	1.278
1826.99	2.731	1.267
1827.55	2.732	1.281
1828.11	2.725	1.278
1828.67	2.725	1.272
1829.23	2.722	1.275
1829.79	2.721	1.270
1830.35	2.722	1.267
1830.91	2.723	1.275
1831.47	2.713	1.275
1832.03	2.712	1.275
1832.59	2.718	1.270
1833.15	2.718	1.270
1833.71	2.712	1.275
1834.27	2.710	1.272
1834.83	2.706	1.278
1835.39	2.705	1.275
1835.95	2.714	1.272
1836.51	2.712	1.270
1837.07	2.707	1.278
1837.63	2.703	1.267
1838.19	2.703	1.275
1838.75	2.704	1.272
1839.31	2.706	1.278
1839.87	2.699	1.272
1840.43	2.701	1.281
1840.99	2.699	1.275
1841.55	2.698	1.281
1842.11	2.695	1.287
1842.67	2.695	1.267
1843.23	2.694	1.272
1843.79	2.692	1.275
1844.35	2.690	1.281
1844.91	2.688	1.278
1845.47	2.687	1.272
1846.03	2.686	1.275
1846.59	2.686	1.281
1847.15	2.681	1.267
1847.71	2.682	1.272
1848.27	2.678	1.267
1848.83	2.692	1.270
1849.39	2.687	1.275
1849.95	2.685	1.264
1850.51	2.680	1.267
1851.07	2.679	1.270
1851.63	2.674	1.270
1852.19	2.672	1.278
1852.75	2.672	1.270
1853.31	2.668	1.270
1853.87	2.666	1.272
1854.43	2.667	1.272
1854.99	2.661	1.270
1855.55	2.662	1.267
1856.11	2.662	1.275
1856.67	2.660	1.270
1857.23	2.660	1.261
1857.79	2.662	1.267
1858.35	2.656	1.272
1858.91	2.647	1.267
1859.47	2.646	1.270
1860.03	2.655	1.258
1860.59	2.649	1.264
1861.15	2.641	1.267
1861.71	2.638	1.275
1862.27	2.641	1.270
1862.83	2.650	1.281
1863.39	2.647	1.275
1863.95	2.639	1.275
1864.51	2.637	1.270
1865.07	2.635	1.255
1865.63	2.637	1.275
1866.19	2.633	1.264
1866.75	2.636	1.270
1867.31	2.633	1.272
1867.87	2.632	1.264
1868.43	2.628	1.267
1868.99	2.627	1.267
1869.55	2.626	1.275
1870.11	2.625	1.267
1870.67	2.622	1.270
1871.23	2.622	1.267
1871.79	2.620	1.264
1872.35	2.617	1.267
1872.91	2.616	1.255
1873.47	2.617	1.261
1874.03	2.614	1.270
1874.59	2.615	1.278
1875.15	2.612	1.264
1875.71	2.622	1.264
1876.27	2.619	1.261
1876.83	2.615	1.264
1877.39	2.614	1.265
1877.93	2.609	1.270
1878.49	2.608	1.267
1879.05	2.606	1.270
1879.59	2.599	1.266
1880.18	2.603	1.265
1880.82	2.596	1.266
1881.38	2.595	1.266
1881.94	2.597	1.270
1882.50	2.592	1.264
1883.06	2.589	1.264
1883.62	2.595	1.264
1884.18	2.588	1.261
1884.74	2.581	1.261
1885.30	2.592	1.264
1885.83	2.589	1.276
1886.40	2.582	1.267
1886.96	2.577	1.270
1887.51	2.577	1.267
1888.07	2.589	1.258
1888.64	2.584	1.255
1889.20	2.577	1.255
1889.76	2.575	1.261
1890.30	2.571	1.273
1890.86	2.577	1.258
1891.42	2.568	1.255
1891.98	2.572	1.258
1892.54	2.570	1.255
1893.10	2.567	1.258
1893.66	2.565	1.258
1894.22	2.562	1.255
1894.80	2.562	1.260
1895.36	2.561	1.255
1895.92	2.560	1.255
1896.46	2.559	1.263
1897.02	2.556	1.252
1897.58	2.553	1.252
1898.14	2.553	1.252
1898.70	2.555	1.255
1899.26	2.554	1.258
1899.82	2.549	1.270
1900.38	2.554	1.261
1900.95	2.551	1.257
1901.51	2.560	1.238
1902.06	2.561	1.247
1902.62	2.553	1.266
1903.16	2.552	1.254
1903.72	2.551	1.252
1904.28	2.551	1.261
1904.84	2.547	1.252
1905.40	2.545	1.254
1905.96	2.544	1.264
1906.61	2.541	1.243
1907.26	2.542	1.247
1907.82	2.534	1.258
1908.38	2.536	1.261
1908.91	2.537	1.245
1909.47	2.536	1.261
1910.03	2.524	1.241
1910.59	2.527	1.244
1911.15	2.533	1.255
1911.71	2.529	1.244
1912.27	2.526	1.258
1912.81	2.524	1.227
1913.35	2.525	1.245
1913.91	2.528	1.241
1914.47	2.525	1.235
1915.03	2.513	1.247
1915.57	2.510	1.239
1916.13	2.510	1.249
1916.69	2.524	1.247
1917.24	2.518	1.248
1917.79	2.514	1.239
1918.41	2.507	1.251
1918.97	2.510	1.244
1919.53	2.510	1.252
1920.09	2.510	1.244
1920.65	2.504	1.247
1921.19	2.508	1.239
1921.72	2.504	1.245
1922.28	2.503	1.238
1922.84	2.500	1.244
1923.40	2.499	1.261
1923.96	2.497	1.241
1924.52	2.495	1.244
1925.08	2.493	1.249
1925.62	2.493	1.239
1926.18	2.491	1.244
1926.74	2.489	1.249
1927.30	2.488	1.238
1927.86	2.486	1.252
1928.39	2.483	1.242
1928.95	2.487	1.247
1929.51	2.481	1.244
1930.08	2.483	1.247
1930.63	2.479	1.244
1931.19	2.479	1.244
1931.75	2.481	1.241
1932.31	2.484	1.241
1932.85	2.485	1.239
1933.41	2.484	1.241
1933.97	2.481	1.235
1934.53	2.479	1.238
1935.09	2.478	1.232
1935.65	2.477	1.235
1936.21	2.475	1.241
1936.77	2.474	1.226
1937.33	2.474	1.235
1937.89	2.472	1.235
1938.48	2.468	1.240
1939.23	2.472	1.242
1939.81	2.468	1.238
1940.36	2.459	1.236
1940.92	2.464	1.235
1941.48	2.466	1.235
1942.04	2.464	1.226
1942.60	2.453	1.238
1943.15	2.457	1.230
1943.73	2.465	1.241
1944.29	2.458	1.235
1944.85	2.447	1.244
1945.41	2.443	1.241
1945.97	2.458	1.232
1946.53	2.455	1.229
1947.09	2.450	1.221
1947.65	2.441	1.235
1948.19	2.438	1.230
1948.75	2.436	1.229
1949.31	2.446	1.238
1949.87	2.447	1.221
1950.43	2.441	1.221
1950.99	2.437	1.232
1951.55	2.434	1.229
1952.11	2.436	1.232
1952.65	2.434	1.236
1953.21	2.429	1.232
1953.75	2.430	1.227
1954.28	2.431	1.233
1954.84	2.430	1.232
1955.40	2.430	1.232
1955.96	2.428	1.226
1956.52	2.427	1.238
1957.08	2.425	1.226
1957.62	2.420	1.235
1958.24	2.417	1.215
1958.88	2.417	1.227
1959.44	2.416	1.235
1960.00	2.414	1.229
1960.56	2.414	1.235
1961.13	2.409	1.238
1961.68	2.411	1.229
1962.24	2.404	1.233
1962.78	2.406	1.236
1963.34	2.408	1.226
1963.90	2.414	1.229
1964.46	2.415	1.235
1965.02	2.412	1.238
1965.58	2.408	1.235
1966.14	2.406	1.235
1966.70	2.404	1.238
1967.23	2.403	1.230
1967.79	2.399	1.235
1968.35	2.400	1.229
1968.89	2.396	1.224
1969.43	2.396	1.211
1969.96	2.394	1.233
1970.52	2.391	1.229
1971.08	2.395	1.224
1971.64	2.393	1.221
1972.20	2.383	1.235
1972.76	2.387	1.235
1973.32	2.390	1.232
1973.86	2.389	1.230
1974.42	2.378	1.226
1974.98	2.376	1.232
1975.54	2.388	1.232
1976.08	2.385	1.224
1976.64	2.381	1.226
1977.20	2.371	1.232
1977.74	2.369	1.233
1978.30	2.378	1.232
1978.86	2.383	1.226
1979.42	2.377	1.229
1979.98	2.370	1.224
1980.54	2.363	1.221
1981.10	2.361	1.229
1981.66	2.363	1.229
1982.22	2.376	1.221
1982.78	2.370	1.232
1983.34	2.368	1.238
1983.90	2.365	1.218
1984.46	2.358	1.226
1985.02	2.360	1.232
1985.58	2.358	1.226
1986.14	2.362	1.226
1986.70	2.358	1.224
1987.26	2.357	1.221
1987.82	2.357	1.221
1988.38	2.353	1.232
1988.94	2.353	1.226
1989.50	2.350	1.229
1990.06	2.349	1.226
1990.61	2.349	1.231
1991.19	2.343	1.225
1991.74	2.345	1.228
1992.29	2.344	1.224
1992.85	2.344	1.224
1993.41	2.341	1.221
1993.97	2.338	1.221
1994.53	2.339	1.229
1995.09	2.337	1.221
1995.65	2.336	1.226
1996.21	2.339	1.218
1996.77	2.332	1.226
1997.33	2.335	1.218
1997.89	2.331	1.221
1998.45	2.343	1.218
1999.01	2.339	1.224
1999.57	2.337	1.226
2000.13	2.331	1.221
2000.69	2.332	1.209
2001.25	2.331	1.224
2001.81	2.325	1.224
2002.35	2.325	1.224
2002.91	2.322	1.235
2003.45	2.324	1.224
2004.01	2.320	1.232
2004.57	2.320	1.226
2005.11	2.320	1.236
2005.64	2.316	1.230
2006.20	2.314	1.226
2006.76	2.318	1.218
2007.32	2.317	1.229
2007.88	2.307	1.221
2008.44	2.312	1.221
2009.00	2.313	1.218
2009.56	2.310	1.218
2010.12	2.306	1.221
2010.68	2.298	1.226
2011.24	2.304	1.218
2011.80	2.309	1.218
2012.36	2.304	1.226
2012.92	2.302	1.215
2013.48	2.295	1.221
2014.04	2.289	1.226
2014.60	2.289	1.221
2015.16	2.302	1.221
2015.72	2.298	1.226
2016.28	2.296	1.224
2016.84	2.293	1.224
2017.40	2.284	1.218
2017.96	2.282	1.215
2018.52	2.281	1.218
2019.08	2.292	1.224
2019.64	2.291	1.215
2020.20	2.288	1.218
2020.76	2.285	1.215
2021.32	2.285	1.221
2021.88	2.281	1.226
2022.44	2.276	1.224
2023.00	2.279	1.215
2023.56	2.278	1.218
2024.12	2.278	1.218
2024.68	2.275	1.221
2025.24	2.273	1.221
2025.80	2.272	1.218
2026.36	2.272	1.224
2026.92	2.272	1.221
2027.48	2.269	1.229
2028.04	2.268	1.218
2028.60	2.264	1.226
2029.16	2.264	1.224
2029.72	2.262	1.226
2030.28	2.261	1.221
2030.84	2.259	1.226
2031.40	2.258	1.224
2031.96	2.253	1.224
2032.52	2.258	1.221
2033.08	2.253	1.224
2033.64	2.265	1.221
2034.20	2.259	1.226
2034.74	2.258	1.224
2035.30	2.253	1.226
2035.86	2.252	1.221
2036.42	2.250	1.226
2036.98	2.248	1.215
2037.52	2.245	1.224
2038.08	2.245	1.224
2038.64	2.244	1.226
2039.20	2.241	1.215
2039.76	2.242	1.224
2040.32	2.239	1.218
2040.88	2.238	1.218
2041.44	2.237	1.218
2042.00	2.232	1.218
2042.56	2.236	1.218
2043.12	2.232	1.218
2043.68	2.231	1.221
2044.24	2.223	1.218
2044.80	2.230	1.229
2045.36	2.229	1.226
2045.92	2.227	1.215
2046.48	2.223	1.218
2047.04	2.214	1.221
2047.60	2.216	1.215
2048.16	2.226	1.221
2048.72	2.222	1.226
2049.28	2.221	1.209
2049.84	2.215	1.221
2050.40	2.208	1.218
2050.96	2.207	1.215
2051.52	2.220	1.221
2052.06	2.217	1.227
2052.62	2.215	1.215
2053.18	2.212	1.221
2053.74	2.208	1.215
2054.30	2.203	1.232
2054.86	2.199	1.229
2055.42	2.197	1.206
2055.98	2.205	1.218
2056.54	2.208	1.229
2057.10	2.204	1.218
2057.66	2.205	1.209
2058.22	2.202	1.229
2058.78	2.201	1.209
2059.34	2.193	1.209
2059.90	2.197	1.224
2060.46	2.196	1.215
2061.02	2.194	1.224
2061.58	2.192	1.212
2062.14	2.190	1.226
2062.70	2.190	1.215
2063.24	2.189	1.215
2063.80	2.188	1.221
2064.36	2.186	1.218
2064.92	2.184	1.212
2065.47	2.183	1.215
2066.01	2.180	1.221
2066.57	2.178	1.218
2067.13	2.179	1.218
2067.69	2.174	1.221
2068.25	2.178	1.215
2068.81	2.174	1.218
2069.38	2.173	1.224
2069.98	2.176	1.216
2070.51	2.175	1.204
2071.07	2.184	1.209
2071.63	2.179	1.215
2072.19	2.176	1.206
2072.76	2.175	1.215
2073.31	2.174	1.203
2073.87	2.171	1.215
2074.43	2.169	1.221
2074.99	2.168	1.206
2075.55	2.167	1.218
2076.11	2.165	1.215
2076.67	2.163	1.212
2077.23	2.162	1.218
2077.77	2.163	1.215
2078.33	2.161	1.212
2078.89	2.161	1.218
2079.45	2.157	1.218
2080.01	2.154	1.218
2080.57	2.156	1.209
2081.13	2.158	1.209
2081.69	2.156	1.221
2082.25	2.143	1.212
2082.81	2.152	1.212
2083.37	2.153	1.206
2083.93	2.150	1.209
2084.47	2.149	1.196
2085.03	2.136	1.215
2085.59	2.137	1.209
2086.15	2.149	1.215
2086.71	2.146	1.218
2087.27	2.143	1.201
2087.83	2.138	1.209
2088.39	2.127	1.212
2088.95	2.127	1.201
2089.51	2.141	1.221
2090.07	2.140	1.215
2090.63	2.137	1.209
2091.19	2.132	1.224
2091.75	2.131	1.209
2092.31	2.123	1.221
2092.87	2.122	1.209
2093.43	2.129	1.218
2093.99	2.135	1.215
2094.55	2.130	1.206
2095.11	2.128	1.209
2095.67	2.126	1.212
2096.23	2.123	1.206
2096.76	2.123	1.212
2097.32	2.113	1.212
2097.88	2.111	1.198
2098.44	2.111	1.206
2099.00	2.124	1.209
2099.56	2.120	1.206
2100.12	2.117	1.201
2100.68	2.115	1.203
2101.24	2.115	1.195
2101.80	2.112	1.203
2102.36	2.108	1.206
2102.92	2.108	1.206
2103.48	2.108	1.209
2104.04	2.107	1.206
2104.60	2.106	1.201
2105.16	2.104	1.203
2105.72	2.103	1.198
2106.28	2.098	1.215
2106.84	2.098	1.206
2107.40	2.096	1.206
2107.96	2.095	1.201
2108.52	2.096	1.201
2109.08	2.094	1.192
2109.64	2.092	1.186
2110.20	2.093	1.195
2110.76	2.090	1.203
2111.32	2.088	1.192
2111.88	2.091	1.198
2112.44	2.091	1.203
2113.00	2.102	1.201
2113.56	2.096	1.206
2114.14	2.093	1.181
2114.70	2.090	1.203
2115.26	2.090	1.192
2115.82	2.088	1.203
2116.38	2.087	1.189
2116.94	2.088	1.198
2117.50	2.083	1.209
2118.06	2.084	1.198
2118.60	2.080	1.201
2119.14	2.079	1.191
2119.68	2.076	1.199
2120.24	2.076	1.198
2120.80	2.077	1.201
2121.36	2.077	1.206
2121.92	2.075	1.206
2122.48	2.071	1.212
2123.04	2.065	1.192
2123.60	2.072	1.195
2124.16	2.071	1.195
2124.72	2.071	1.198
2125.28	2.066	1.198
2125.84	2.060	1.201
2126.40	2.068	1.198
2126.96	2.068	1.206
2127.52	2.068	1.198
2128.08	2.060	1.189
2128.64	2.053	1.195
2129.20	2.059	1.203
2129.76	2.064	1.186
2130.32	2.061	1.201
2130.88	2.058	1.201
2131.42	2.053	1.187
2131.98	2.045	1.183
2132.54	2.048	1.189
2133.10	2.057	1.198
2133.66	2.051	1.195
2134.22	2.049	1.186
2134.78	2.048	1.198
2135.34	2.043	1.192
2135.90	2.036	1.195
2136.46	2.036	1.189
2137.02	2.049	1.192
2137.58	2.046	1.189
2138.14	2.046	1.195
2138.70	2.040	1.186
2139.26	2.040	1.186
2139.82	2.039	1.183
2140.38	2.027	1.201
2140.94	2.026	1.186
2141.50	2.026	1.186
2142.06	2.038	1.195
2142.62	2.034	1.186
2143.18	2.032	1.189
2143.74	2.030	1.189
2144.30	2.027	1.186
2144.85	2.027	1.187
2145.39	2.025	1.189
2145.94	2.016	1.189
2146.49	2.025	1.185
2147.08	2.020	1.189
2147.62	2.020	1.188
2148.15	2.017	1.184
2148.69	2.017	1.190
2149.25	2.015	1.175
2149.79	2.014	1.178
2150.35	2.013	1.180
2150.90	2.010	1.190
2151.43	2.010	1.193
2151.98	2.013	1.178
2152.51	2.007	1.184
2153.08	2.008	1.186
2153.64	2.009	1.186
2154.18	2.012	1.184
2154.71	2.016	1.184
2155.25	2.015	1.193
2155.81	2.012	1.183
2156.37	2.009	1.192
2156.94	2.010	1.180
2157.50	2.008	1.186
2158.06	2.007	1.183
2158.59	2.005	1.175
2159.15	2.006	1.175
2159.70	2.003	1.181
2160.23	2.001	1.178
2160.78	1.999	1.187
2161.35	1.999	1.190
2161.91	2.000	1.189
2162.44	1.998	1.181
2163.00	1.994	1.180
2163.56	1.995	1.180
2164.10	1.994	1.175
2164.66	1.994	1.175
2165.22	1.988	1.192
2165.78	1.985	1.175
2166.34	1.995	1.180
2166.90	1.990	1.178
2167.46	1.991	1.183
2168.00	1.985	1.181
2168.53	1.978	1.190
2169.09	1.988	1.180
2169.65	1.987	1.180
2170.21	1.984	1.178
2170.77	1.984	1.186
2171.33	1.974	1.189
2171.89	1.975	1.180
2172.45	1.986	1.192
2173.01	1.983	1.178
2173.57	1.980	1.189
2174.11	1.979	1.184
2174.67	1.972	1.172
2175.23	1.968	1.175
2175.76	1.975	1.175
2176.32	1.981	1.175
2176.85	1.977	1.178
2177.41	1.976	1.175
2177.95	1.974	1.175
2178.51	1.972	1.189
2179.08	1.970	1.172
2179.64	1.964	1.186
2180.20	1.962	1.178
2180.76	1.974	1.186
2181.30	1.976	1.193
2181.83	1.969	1.172
2182.37	1.969	1.175
2182.93	1.969	1.180
2183.49	1.968	1.180
2184.05	1.966	1.183
2184.61	1.964	1.183
2185.17	1.958	1.183
2185.73	1.958	1.175
2186.29	1.970	1.172
2186.85	1.968	1.172
2187.41	1.967	1.192
2187.95	1.967	1.175
2188.51	1.964	1.178
2189.07	1.963	1.180
2189.63	1.962	1.183
2190.19	1.961	1.180
2190.75	1.953	1.175
2191.31	1.953	1.178
2191.87	1.962	1.172
2192.43	1.969	1.180
2192.99	1.968	1.175
2193.55	1.964	1.172
2194.11	1.964	1.175
2194.65	1.963	1.175
2195.21	1.963	1.175
2195.77	1.964	1.172
2196.33	1.964	1.175
2196.89	1.963	1.175
2197.45	1.961	1.169
2198.01	1.968	1.183
2198.57	1.968	1.178
2199.13	1.967	1.186
2199.69	1.969	1.175
2200.25	1.967	1.178
2200.81	1.969	1.183
2201.37	1.970	1.172
2201.93	1.972	1.180
2202.49	1.973	1.175
2203.05	1.978	1.175
2203.61	1.976	1.172
2204.17	1.992	1.175
2204.73	1.994	1.172
2205.29	1.996	1.172
2205.85	1.996	1.180
2206.41	1.998	1.180
2206.97	1.999	1.169
2207.53	2.001	1.175
2208.09	2.003	1.180
2208.65	2.005	1.169
2209.19	2.005	1.172
2209.75	2.007	1.169
2210.31	2.009	1.180
2210.87	2.009	1.175
2211.43	2.013	1.183
2211.99	2.011	1.180
2212.55	2.015	1.178
2213.11	2.015	1.175
2213.67	2.018	1.175
2214.23	2.018	1.172
2214.79	2.018	1.178
2215.35	2.018	1.178
2215.91	2.021	1.172
2216.47	2.013	1.169
2217.03	2.021	1.172
2217.59	2.021	1.172
2218.15	2.025	1.175
2218.71	2.017	1.178
2219.27	2.011	1.180
2219.83	2.023	1.172
2220.39	2.022	1.180
2220.95	2.020	1.175
2221.51	2.018	1.183
2222.07	2.011	1.172
2222.63	2.009	1.175
2223.19	2.019	1.169
2223.75	2.017	1.180
2224.31	2.014	1.178
2224.87	2.012	1.175
2225.43	2.009	1.180
2225.99	2.013	1.175
2226.55	2.009	1.175
2227.11	2.001	1.178
2227.67	2.004	1.178
2228.23	2.012	1.172
2228.79	2.009	1.178
2229.35	2.006	1.180
2229.91	2.004	1.163
2230.47	2.002	1.172
2231.03	1.999	1.172
2231.59	1.994	1.175
2232.15	1.990	1.169
2232.71	1.994	1.169
2233.26	2.002	1.175
2233.82	1.999	1.172
2234.38	1.998	1.175
2234.94	1.991	1.172
2235.50	1.990	1.169
2236.06	1.988	1.175
2236.62	1.988	1.169
2237.18	1.985	1.172
2237.74	1.986	1.166
2238.30	1.974	1.175
2238.86	1.972	1.169
2239.42	1.980	1.178
2239.98	1.985	1.180
2240.54	1.982	1.178
2241.10	1.980	1.178
2241.66	1.976	1.172
2242.22	1.974	1.180
2242.78	1.972	1.172
2243.34	1.971	1.175
2243.90	1.967	1.169
2244.46	1.963	1.172
2245.02	1.961	1.175
2245.58	1.972	1.172
2246.11	1.971	1.168
2246.67	1.968	1.178
2247.23	1.965	1.180
2247.78	1.962	1.159
2248.34	1.961	1.172
2248.90	1.962	1.169
2249.46	1.958	1.166
2250.02	1.959	1.169
2250.58	1.956	1.175
2251.14	1.957	1.175
2251.70	1.947	1.169
2252.26	1.951	1.172
2252.82	1.953	1.169
2253.38	1.948	1.172
2253.94	1.948	1.175
2254.50	1.944	1.172
2255.06	1.942	1.166
2255.60	1.943	1.169
2256.16	1.941	1.172
2256.72	1.936	1.169
2257.28	1.938	1.163
2257.83	1.937	1.172
2258.39	1.942	1.169
2258.93	1.946	1.175
2259.49	1.943	1.169
2260.03	1.940	1.169
2260.59	1.936	1.175
2261.15	1.936	1.175
2261.71	1.934	1.166
2262.27	1.932	1.169
2262.83	1.932	1.155
2263.39	1.932	1.172
2263.95	1.932	1.175
2264.51	1.928	1.172
2265.07	1.927	1.164
2265.62	1.926	1.157
2266.16	1.924	1.172
2266.72	1.924	1.166
2267.28	1.922	1.175
2267.84	1.923	1.172
2268.40	1.919	1.169
2268.96	1.917	1.175
2269.52	1.916	1.160
2270.07	1.914	1.175
2270.63	1.913	1.169
2271.19	1.912	1.158
2271.75	1.913	1.166
2272.31	1.911	1.166
2272.87	1.911	1.149
2273.43	1.908	1.172
2273.99	1.906	1.166
2274.52	1.906	1.163
2275.08	1.903	1.172
2275.64	1.908	1.163
2276.20	1.898	1.166
2276.76	1.895	1.163
2277.32	1.904	1.163
2277.88	1.902	1.172
2278.44	1.903	1.166
2279.00	1.900	1.166
2279.56	1.893	1.163
2280.12	1.886	1.166
2280.68	1.896	1.163
2281.24	1.895	1.158
2281.80	1.891	1.169
2282.36	1.892	1.172
2282.92	1.888	1.160
2283.48	1.880	1.163
2284.04	1.882	1.169
2284.60	1.891	1.169
2285.16	1.890	1.169
2285.72	1.885	1.155
2286.28	1.886	1.155
2286.84	1.879	1.160
2287.40	1.876	1.163
2287.96	1.877	1.152
2288.52	1.884	1.163
2289.08	1.882	1.166
2289.64	1.880	1.163
2290.20	1.879	1.163
2290.76	1.879	1.158
2291.32	1.877	1.158
2291.88	1.876	1.160
2292.44	1.866	1.163
2293.00	1.864	1.160
2293.56	1.875	1.166
2294.12	1.878	1.155
2294.68	1.875	1.155
2295.27	1.872	1.158
2295.82	1.869	1.158
2296.35	1.870	1.160
2296.90	1.866	1.153
2297.53	1.866	1.139
2298.08	1.867	1.160
2298.64	1.859	1.155
2299.20	1.855	1.155
2299.76	1.859	1.158
2300.32	1.866	1.155
2300.88	1.865	1.149
2301.42	1.861	1.160
2301.98	1.859	1.152
2302.54	1.856	1.158
2303.09	1.857	1.154
2303.63	1.855	1.144
2304.19	1.855	1.160
2304.76	1.851	1.152
2305.31	1.848	1.152
2305.87	1.846	1.166
2306.41	1.857	1.163
2306.97	1.853	1.152
2307.53	1.852	1.158
2308.09	1.851	1.163
2308.65	1.850	1.146
2309.21	1.849	1.152
2309.77	1.849	1.155
2310.33	1.847	1.146
2310.89	1.845	1.143
2311.45	1.843	1.160
2312.01	1.847	1.158
2312.57	1.839	1.155
2313.11	1.845	1.154
2313.67	1.843	1.149
2314.23	1.841	1.149
2314.79	1.839	1.149
2315.35	1.839	1.160
2315.91	1.837	1.152
2316.47	1.835	1.149
2317.03	1.830	1.149
2317.59	1.831	1.160
2318.15	1.830	1.152
2318.71	1.829	1.146
2319.27	1.833	1.146
2319.83	1.838	1.155
2320.39	1.843	1.152
2320.95	1.838	1.146
2321.51	1.834	1.149
2322.07	1.833	1.149
2322.63	1.829	1.149
2323.19	1.827	1.163
2323.75	1.826	1.149
2324.31	1.825	1.146
2324.87	1.824	1.152
2325.43	1.821	1.163
2325.99	1.820	1.137
2326.55	1.820	1.135
2327.11	1.817	1.146
2327.67	1.816	1.155
2328.23	1.814	1.143
2328.79	1.815	1.137
2329.35	1.815	1.143
2329.91	1.811	1.129
2330.47	1.812	1.146
2331.03	1.810	1.146
2331.59	1.810	1.140
2332.15	1.809	1.137
2332.71	1.809	1.155
2333.27	1.808	1.140
2333.83	1.809	1.152
2334.36	1.807	1.132
2334.91	1.807	1.146
2335.47	1.807	1.137
2336.03	1.803	1.146
2336.59	1.806	1.143
2337.15	1.801	1.135
2337.71	1.794	1.146
2338.27	1.799	1.146
2338.83	1.804	1.147
2339.36	1.799	1.146
2339.92	1.799	1.146
2340.48	1.796	1.143
2341.04	1.795	1.137
2341.60	1.796	1.146
2342.16	1.788	1.143
2342.70	1.783	1.132
2343.26	1.787	1.137
2343.82	1.792	1.129
2344.38	1.790	1.146
2344.94	1.789	1.146
2345.50	1.788	1.137
2346.06	1.780	1.137
2346.62	1.775	1.143
2347.18	1.778	1.149
2347.74	1.786	1.140
2348.30	1.784	1.137
2348.86	1.782	1.129
2349.42	1.782	1.135
2349.98	1.780	1.135
2350.54	1.781	1.126
2351.10	1.776	1.137
2351.66	1.769	1.149
2352.22	1.768	1.129
2352.78	1.779	1.149
2353.35	1.779	1.132
2353.91	1.774	1.135
2354.47	1.773	1.126
2355.03	1.772	1.129
2355.59	1.772	1.132
2356.15	1.773	1.135
2356.71	1.767	1.146
2357.27	1.763	1.137
2357.83	1.766	1.137
2358.39	1.774	1.129
2358.95	1.771	1.137
2359.51	1.768	1.123
2360.07	1.768	1.140
2360.63	1.767	1.135
2361.19	1.765	1.149
2361.75	1.765	1.135
2362.31	1.765	1.132
2362.87	1.765	1.126
2363.43	1.755	1.137
2363.99	1.751	1.126
2364.55	1.760	1.132
2365.11	1.764	1.137
2365.67	1.759	1.135
2366.23	1.760	1.129
2366.79	1.759	1.126
2367.35	1.757	1.135
2367.91	1.756	1.132
2368.47	1.754	1.132
2369.03	1.752	1.137
2369.59	1.753	1.132
2370.15	1.755	1.140
2370.71	1.743	1.132
2371.27	1.739	1.135
2371.83	1.753	1.135
2372.39	1.753	1.131
2372.93	1.752	1.135
2373.49	1.747	1.137
2374.05	1.746	1.140
2374.61	1.745	1.140
2375.15	1.745	1.135
2375.69	1.742	1.138
2376.25	1.741	1.126
2376.81	1.738	1.132
2377.36	1.739	1.144
2377.92	1.741	1.135
2378.46	1.738	1.130
2379.02	1.731	1.132
2379.58	1.737	1.135
2380.14	1.738	1.129
2380.70	1.735	1.126
2381.26	1.732	1.129
2381.82	1.733	1.132
2382.38	1.732	1.126
2382.94	1.732	1.132
2383.50	1.729	1.123
2384.06	1.728	1.129
2384.62	1.729	1.117
2385.16	1.733	1.129
2385.72	1.738	1.129
2386.28	1.732	1.135
2386.84	1.731	1.126
2387.40	1.731	1.137
2387.96	1.728	1.129
2388.52	1.728	1.129
2389.08	1.726	1.129
2389.64	1.724	1.152
2390.20	1.724	1.132
2390.76	1.723	1.132
2391.32	1.722	1.126
2391.88	1.718	1.132
2392.44	1.720	1.126
2393.00	1.718	1.129
2393.56	1.716	1.129
2394.12	1.718	1.126
2394.68	1.714	1.132
2395.24	1.714	1.135
2395.80	1.712	1.132
2396.36	1.711	1.120
2396.92	1.711	1.129
2397.48	1.712	1.129
2398.04	1.710	1.126
2398.60	1.711	1.132
2399.16	1.706	1.126
2399.72	1.710	1.123
2400.28	1.707	1.123
2400.84	1.709	1.123
2401.40	1.709	1.123
2401.96	1.703	1.126
2402.52	1.704	1.132
2403.08	1.703	1.132
2403.64	1.702	1.129
2404.20	1.703	1.140
2404.76	1.700	1.123
2405.32	1.699	1.123
2405.88	1.700	1.135
2406.44	1.698	1.132
2407.00	1.697	1.126
2407.56	1.697	1.132
2408.12	1.697	1.129
2408.68	1.695	1.126
2409.24	1.696	1.123
2409.80	1.695	1.123
2410.34	1.694	1.120
2410.90	1.692	1.129
2411.46	1.692	1.129
2412.02	1.692	1.123
2412.58	1.690	1.129
2413.14	1.691	1.129
2413.70	1.690	1.126
2414.26	1.688	1.126
2414.82	1.691	1.135
2415.38	1.689	1.132
2415.94	1.688	1.126
2416.50	1.687	1.117
2417.06	1.689	1.129
2417.62	1.685	1.126
2418.18	1.682	1.117
2418.74	1.683	1.123
2419.30	1.682	1.129
2419.86	1.676	1.126
2420.42	1.668	1.126
2420.98	1.670	1.120
2421.54	1.682	1.120
2422.10	1.678	1.129
2422.66	1.677	1.112
2423.22	1.675	1.120
2423.78	1.675	1.129
2424.34	1.673	1.126
2424.90	1.675	1.126
2425.46	1.672	1.123
2426.02	1.670	1.120
2426.58	1.671	1.132
2427.14	1.673	1.126
2427.70	1.663	1.135
2428.26	1.659	1.123
2428.82	1.659	1.123
2429.38	1.671	1.126
2429.94	1.669	1.123
2430.50	1.666	1.123
2431.06	1.665	1.120
2431.62	1.662	1.126
2432.18	1.660	1.129
2432.74	1.665	1.123
2433.30	1.662	1.126
2433.86	1.660	1.117
2434.42	1.659	1.120
2434.98	1.660	1.120
2435.54	1.659	1.126
2436.10	1.658	1.126
2436.66	1.658	1.129
2437.22	1.654	1.120
2437.78	1.647	1.126
2438.34	1.645	1.126
2438.90	1.651	1.120
2439.46	1.656	1.123
2440.02	1.654	1.129
2440.58	1.652	1.117
2441.14	1.651	1.123
2441.70	1.652	1.123
2442.26	1.650	1.126
2442.82	1.649	1.117
2443.38	1.647	1.117
2443.94	1.646	1.129
2444.50	1.647	1.120
2445.06	1.646	1.135
2445.62	1.646	1.123
2446.18	1.645	1.120
2446.74	1.641	1.117
2447.30	1.641	1.112
2447.86	1.644	1.123
2448.42	1.641	1.126
2448.98	1.641	1.123
2449.54	1.640	1.126
2450.10	1.640	1.120
2450.66	1.631	1.126
2451.22	1.625	1.120
2451.78	1.625	1.120
2452.34	1.639	1.123
2452.90	1.638	1.126
2453.46	1.632	1.120
2454.02	1.632	1.126
2454.58	1.630	1.117
2455.14	1.627	1.120
2455.70	1.627	1.120
2456.26	1.626	1.129
2456.82	1.625	1.114
2457.38	1.627	1.120
2457.94	1.625	1.117
2458.50	1.624	1.126
2459.03	1.625	1.123
2459.59	1.625	1.120
2460.15	1.620	1.114
2460.71	1.621	1.112
2461.27	1.621	1.112
2461.83	1.621	1.120
2462.39	1.620	1.117
2462.95	1.621	1.123
2463.51	1.620	1.117
2464.07	1.616	1.126
2464.63	1.618	1.126
2465.20	1.616	1.126
2465.76	1.615	1.112
2466.32	1.608	1.117
2466.87	1.606	1.120
2467.43	1.612	1.117
2467.99	1.618	1.123
2468.55	1.614	1.120
2469.11	1.612	1.117
2469.67	1.610	1.117
2470.23	1.609	1.114
2470.79	1.609	1.120
2471.35	1.610	1.112
2471.91	1.608	1.114
2472.47	1.608	1.120
2473.03	1.606	1.117
2473.59	1.607	1.120
2474.15	1.606	1.120
2474.71	1.603	1.120
2475.27	1.603	1.120
2475.83	1.604	1.120
2476.39	1.601	1.106
2476.95	1.600	1.123
2477.51	1.602	1.120
2478.07	1.597	1.112
2478.63	1.598	1.117
2479.19	1.598	1.112
2479.75	1.596	1.120
2480.31	1.595	1.117
2480.87	1.595	1.126
2481.43	1.597	1.117
2481.99	1.588	1.123
2482.55	1.588	1.120
2483.12	1.589	1.112
2483.68	1.586	1.106
2484.23	1.587	1.112
2484.80	1.585	1.120
2485.35	1.585	1.126
2485.91	1.582	1.109
2486.47	1.583	1.120
2487.03	1.580	1.106
2487.59	1.579	1.114
2488.15	1.581	1.109
2488.71	1.589	1.117
2489.27	1.589	1.109
2489.83	1.587	1.106
2490.39	1.583	1.114
2490.95	1.582	1.112
2491.51	1.581	1.123
2492.07	1.580	1.112
2492.63	1.579	1.117
2493.19	1.577	1.103
2493.75	1.577	1.109
2494.31	1.575	1.112
2494.87	1.574	1.106
2495.43	1.573	1.114
2495.99	1.571	1.112
2496.55	1.569	1.106
2497.11	1.569	1.117
2497.67	1.568	1.123
2498.23	1.569	1.109
2498.79	1.566	1.109
2499.35	1.565	1.112
2499.91	1.565	1.109
2500.45	1.566	1.114
2501.01	1.563	1.117
2501.57	1.566	1.106
2502.13	1.562	1.114
2502.69	1.561	1.103
2503.25	1.564	1.114
2503.81	1.560	1.112
2504.37	1.561	1.112
2504.93	1.560	1.106
2505.49	1.557	1.109
2506.05	1.558	1.114
2506.61	1.556	1.114
2507.17	1.557	1.112
2507.73	1.560	1.103
2508.29	1.558	1.103
2508.85	1.553	1.114
2509.41	1.556	1.120
2509.97	1.554	1.109
2510.53	1.551	1.114
2511.09	1.552	1.097
2511.65	1.551	1.112
2512.21	1.550	1.106
2512.77	1.550	1.112
2513.33	1.550	1.103
2513.89	1.550	1.112
2514.45	1.546	1.120
2515.01	1.547	1.103
2515.57	1.547	1.106
2516.13	1.544	1.097
2516.69	1.547	1.100
2517.25	1.545	1.112
2517.81	1.542	1.097
2518.37	1.543	1.114
2518.93	1.543	1.114
2519.49	1.542	1.120
2520.05	1.540	1.106
2520.61	1.541	1.114
2521.17	1.538	1.114
2521.73	1.540	1.112
2522.29	1.538	1.106
2522.85	1.539	1.106
2523.41	1.537	1.091
2523.97	1.537	1.100
2524.53	1.536	1.091
2525.09	1.535	1.094
2525.65	1.535	1.100
2526.21	1.532	1.103
2526.77	1.535	1.097
2527.33	1.535	1.103
2527.89	1.531	1.120
2528.45	1.533	1.112
2529.01	1.533	1.097
2529.57	1.531	1.109
2530.13	1.532	1.094
2530.69	1.529	1.083
2531.25	1.531	1.089
2531.81	1.529	1.100
2532.37	1.526	1.086
2532.93	1.530	1.097
2533.49	1.527	1.100
2534.05	1.526	1.094
2534.61	1.522	1.109
2535.17	1.527	1.100
2535.73	1.524	1.109
2536.29	1.522	1.089
2536.85	1.521	1.091
2537.41	1.525	1.091
2537.97	1.520	1.086
2538.53	1.519	1.106
2539.09	1.517	1.094
2539.65	1.519	1.094
2540.21	1.517	1.089
2540.77	1.515	1.097
2541.33	1.517	1.100
2541.89	1.516	1.094
2542.45	1.516	1.097
2543.01	1.511	1.103
2543.57	1.514	1.106
2544.13	1.515	1.094
2544.69	1.513	1.089
2545.25	1.510	1.097
2545.81	1.511	1.086
2546.37	1.511	1.089
2546.93	1.509	1.094
2547.49	1.498	1.097
2548.05	1.498	1.106
2548.61	1.498	1.106
2549.17	1.507	1.083
2549.73	1.505	1.094
2550.29	1.505	1.103
2550.85	1.502	1.100
2551.41	1.500	1.106
2551.97	1.502	1.089
2552.53	1.499	1.094
2553.09	1.502	1.089
2553.63	1.498	1.093
2554.19	1.499	1.091
2554.75	1.500	1.080
2555.31	1.499	1.089
2555.87	1.498	1.106
2556.43	1.498	1.103
2556.99	1.498	1.091
2557.52	1.498	1.099
2558.08	1.495	1.100
2558.64	1.496	1.097
2559.20	1.497	1.097
2559.76	1.495	1.106
2560.32	1.493	1.091
2560.88	1.496	1.083
2561.44	1.494	1.080
2562.00	1.491	1.100
2562.56	1.491	1.103
2563.14	1.495	1.094
2563.76	1.492	1.093
2564.31	1.488	1.091
2564.87	1.490	1.097
2565.43	1.491	1.106
2565.99	1.487	1.091
2566.55	1.480	1.094
2567.11	1.475	1.091
2567.67	1.474	1.089
2568.23	1.482	1.094
2568.79	1.486	1.094
2569.35	1.482	1.089
2569.91	1.480	1.089
2570.48	1.479	1.077
2571.03	1.480	1.089
2571.59	1.478	1.077
2572.15	1.476	1.083
2572.71	1.475	1.089
2573.27	1.475	1.097
2573.83	1.476	1.086
2574.39	1.473	1.086
2574.95	1.473	1.083
2575.51	1.474	1.097
2576.07	1.474	1.089
2576.63	1.469	1.089
2577.17	1.472	1.086
2577.73	1.468	1.089
2578.29	1.469	1.094
2578.85	1.468	1.080
2579.41	1.469	1.083
2579.97	1.466	1.077
2580.53	1.465	1.089
2581.09	1.466	1.091
2581.65	1.465	1.089
2582.21	1.464	1.080
2582.77	1.461	1.083
2583.33	1.463	1.086
2583.89	1.463	1.089
2584.45	1.461	1.083
2585.01	1.459	1.089
2585.57	1.461	1.074
2586.13	1.460	1.083
2586.69	1.459	1.083
2587.25	1.457	1.086
2587.81	1.460	1.083
2588.37	1.459	1.086
2588.93	1.456	1.077
2589.49	1.448	1.066
2590.05	1.444	1.086
2590.61	1.445	1.080
2591.17	1.457	1.074
2591.73	1.456	1.080
2592.29	1.454	1.089
2592.85	1.450	1.071
2593.41	1.448	1.080
2593.97	1.449	1.083
2594.53	1.447	1.083
2595.09	1.448	1.083
2595.65	1.447	1.080
2596.21	1.448	1.077
2596.77	1.448	1.086
2597.33	1.446	1.086
2597.89	1.445	1.086
2598.45	1.447	1.080
2599.01	1.447	1.089
2599.57	1.442	1.083
2600.11	1.442	1.077
2600.67	1.442	1.080
2601.23	1.441	1.089
2601.79	1.439	1.074
2602.35	1.442	1.074
2602.91	1.440	1.074
2603.47	1.438	1.077
2604.03	1.439	1.097
2604.59	1.440	1.080
2605.15	1.439	1.083
2605.71	1.436	1.077
2606.27	1.438	1.080
2606.83	1.436	1.083
2607.39	1.435	1.086
2607.95	1.434	1.083
2608.51	1.433	1.080
2609.07	1.433	1.077
2609.63	1.433	1.083
2610.19	1.430	1.086
2610.75	1.432	1.074
2611.31	1.432	1.080
2611.87	1.430	1.083
2612.43	1.428	1.083
2612.99	1.428	1.074
2613.55	1.425	1.071
2614.11	1.425	1.086
2614.67	1.422	1.080
2615.23	1.423	1.080
2615.79	1.421	1.068
2616.35	1.419	1.083
2616.91	1.418	1.077
2617.47	1.417	1.080
2618.03	1.419	1.080
2618.59	1.417	1.083
2619.15	1.418	1.077
2619.71	1.415	1.080
2620.24	1.415	1.080
2620.80	1.415	1.074
2621.36	1.414	1.083
2621.92	1.413	1.080
2622.48	1.412	1.077
2623.04	1.411	1.089
2623.60	1.410	1.077
2624.16	1.410	1.074
2624.72	1.410	1.077
2625.28	1.410	1.086
2625.84	1.407	1.077
2626.38	1.407	1.086
2626.94	1.405	1.074
2627.50	1.406	1.080
2628.06	1.405	1.083
2628.62	1.406	1.071
2629.18	1.404	1.083
2629.74	1.404	1.083
2630.30	1.405	1.080
2630.86	1.400	1.080
2631.42	1.401	1.071
2631.98	1.400	1.083
2632.54	1.398	1.074
2633.10	1.399	1.066
2633.66	1.397	1.080
2634.22	1.395	1.074
2634.78	1.397	1.080
2635.34	1.396	1.086
2635.90	1.395	1.071
2636.46	1.394	1.077
2637.02	1.393	1.077
2637.58	1.391	1.074
2638.14	1.392	1.074
2638.67	1.391	1.074
2639.21	1.388	1.080
2639.77	1.390	1.071
2640.33	1.389	1.071
2640.89	1.386	1.086
2641.45	1.388	1.080
2642.01	1.386	1.077
2642.57	1.387	1.066
2643.11	1.385	1.068
2643.67	1.385	1.071
2644.23	1.384	1.071
2644.79	1.382	1.071
2645.35	1.382	1.068
2645.91	1.381	1.077
2646.47	1.381	1.068
2647.03	1.383	1.068
2647.59	1.380	1.074
2648.15	1.380	1.068
2648.71	1.377	1.066
2649.27	1.377	1.066
2649.83	1.376	1.074
2650.39	1.377	1.080
2650.95	1.375	1.080
2651.51	1.374	1.071
2652.07	1.375	1.077
2652.63	1.374	1.074
2653.19	1.372	1.077
2653.75	1.373	1.077
2654.31	1.371	1.074
2654.87	1.371	1.074
2655.42	1.372	1.074
2655.98	1.368	1.074
2656.52	1.368	1.071
2657.06	1.368	1.065
2657.62	1.370	1.071
2658.18	1.367	1.071
2658.74	1.368	1.068
2659.30	1.365	1.080
2659.86	1.366	1.071
2660.42	1.366	1.074
2660.98	1.362	1.066
2661.54	1.362	1.071
2662.10	1.361	1.066
2662.66	1.362	1.068
2663.22	1.361	1.074
2663.78	1.359	1.074
2664.34	1.360	1.077
2664.90	1.356	1.074
2665.46	1.359	1.074
2666.02	1.358	1.071
2666.58	1.356	1.083
2667.14	1.356	1.071
2667.70	1.353	1.077
2668.26	1.355	1.060
2668.82	1.353	1.074
2669.38	1.352	1.071
2669.94	1.352	1.068
2670.50	1.349	1.083
2671.06	1.351	1.068
2671.62	1.349	1.071
2672.18	1.348	1.068
2672.74	1.349	1.057
2673.29	1.345	1.065
2673.83	1.348	1.055
2674.39	1.346	1.068
2674.95	1.345	1.071
2675.49	1.345	1.074
2676.05	1.344	1.071
2676.61	1.344	1.077
2677.17	1.343	1.063
2677.73	1.341	1.074
2678.29	1.341	1.068
2678.85	1.340	1.077
2679.41	1.341	1.074
2679.97	1.339	1.066
2680.53	1.338	1.074
2681.09	1.339	1.063
2681.65	1.339	1.074
2682.21	1.338	1.057
2682.77	1.338	1.071
2683.33	1.337	1.074
2683.89	1.335	1.077
2684.45	1.335	1.066
2685.01	1.337	1.066
2685.57	1.336	1.066
2686.13	1.334	1.068
2686.69	1.334	1.077
2687.25	1.334	1.080
2687.81	1.334	1.071
2688.37	1.334	1.074
2688.93	1.334	1.066
2689.49	1.334	1.057
2690.05	1.332	1.057
2690.61	1.333	1.068
2691.17	1.330	1.057
2691.73	1.329	1.066
2692.29	1.329	1.057
2692.85	1.330	1.060
2693.41	1.329	1.068
2693.97	1.330	1.063
2694.53	1.326	1.054
2695.09	1.326	1.054
2695.65	1.327	1.066
2696.21	1.326	1.077
2696.77	1.327	1.057
2697.33	1.321	1.068
2697.89	1.322	1.066
2698.45	1.322	1.077
2699.01	1.321	1.060
2699.57	1.322	1.057
2700.13	1.320	1.066
2700.69	1.321	1.066
2701.25	1.321	1.068
2701.81	1.320	1.066
2702.37	1.321	1.066
2702.93	1.320	1.071
2703.49	1.320	1.063
2704.05	1.320	1.060
2704.61	1.318	1.068
2705.17	1.319	1.068
2705.73	1.318	1.063
2706.29	1.320	1.071
2706.85	1.316	1.066
2707.41	1.315	1.060
2707.97	1.312	1.063
2708.53	1.314	1.057
2709.09	1.315	1.054
2709.65	1.312	1.054
2710.21	1.311	1.043
2710.77	1.310	1.051
2711.33	1.308	1.068
2711.89	1.305	1.051
2712.45	1.305	1.063
2713.01	1.304	1.068
2713.57	1.305	1.045
2714.13	1.305	1.066
2714.69	1.304	1.066
2715.25	1.303	1.060
2715.81	1.303	1.068
2716.37	1.302	1.063
2716.93	1.303	1.057
2717.49	1.300	1.060
2718.05	1.301	1.057
2718.61	1.299	1.071
2719.17	1.300	1.057
2719.73	1.299	1.060
2720.29	1.298	1.060
2720.85	1.299	1.054
2721.41	1.298	1.057
2721.97	1.297	1.068
2722.53	1.298	1.057
2723.09	1.295	1.057
2723.65	1.296	1.054
2724.21	1.294	1.066
2724.77	1.293	1.037
2725.33	1.294	1.048
2725.89	1.293	1.054
2726.45	1.293	1.066
2727.01	1.289	1.051
2727.57	1.291	1.054
2728.13	1.289	1.063
2728.69	1.290	1.048
2729.25	1.290	1.054
2729.81	1.288	1.057
2730.37	1.287	1.045
2730.93	1.287	1.066
2731.49	1.286	1.063
2732.05	1.285	1.066
2732.61	1.286	1.068
2733.17	1.283	1.048
2733.73	1.282	1.040
2734.29	1.284	1.040
2734.85	1.280	1.045
2735.41	1.278	1.048
2735.97	1.280	1.054
2736.53	1.278	1.060
2737.09	1.279	1.045
2737.65	1.277	1.045
2738.21	1.276	1.043
2738.77	1.275	1.054
2739.33	1.276	1.054
2739.89	1.276	1.054
2740.45	1.274	1.063
2741.01	1.272	1.057
2741.57	1.273	1.054
2742.13	1.272	1.051
2742.69	1.273	1.063
2743.25	1.272	1.054
2743.81	1.272	1.054
2744.37	1.270	1.045
2744.93	1.268	1.043
2745.49	1.268	1.045
2746.05	1.268	1.051
2746.61	1.268	1.037
2747.17	1.267	1.048
2747.73	1.265	1.063
2748.29	1.265	1.043
2748.85	1.265	1.057
2749.41	1.267	1.054
2749.97	1.265	1.060
2750.53	1.264	1.060
2751.09	1.262	1.051
2751.65	1.263	1.048
2752.21	1.262	1.057
2752.77	1.262	1.060
2753.33	1.261	1.045
2753.89	1.261	1.060
2754.45	1.261	1.060
2755.01	1.259	1.045
2755.57	1.260	1.048
2756.13	1.258	1.054
2756.69	1.258	1.054
2757.25	1.257	1.051
2757.81	1.257	1.060
2758.37	1.256	1.040
2758.93	1.255	1.048
2759.49	1.255	1.043
2760.05	1.255	1.045
2760.61	1.253	1.051
2761.17	1.253	1.048
2761.73	1.252	1.040
2762.29	1.253	1.040
2762.85	1.253	1.054
2763.41	1.251	1.045
2763.97	1.252	1.045
2764.53	1.248	1.045
2765.09	1.248	1.045
2765.65	1.247	1.057
2766.21	1.244	1.043
2766.77	1.245	1.040
2767.33	1.245	1.048
2767.89	1.243	1.045
2768.45	1.243	1.045
2769.01	1.241	1.045
2769.57	1.241	1.048
2770.13	1.240	1.045
2770.69	1.238	1.048
2771.25	1.235	1.048
2771.81	1.238	1.048
2772.37	1.234	1.045
2772.93	1.237	1.028
2773.49	1.233	1.043
2774.05	1.234	1.045
2774.61	1.232	1.040
2775.17	1.231	1.043
2775.73	1.232	1.040
2776.29	1.229	1.051
2776.85	1.230	1.031
2777.41	1.230	1.043
2777.97	1.228	1.045
2778.51	1.229	1.041
2779.04	1.228	1.035
2779.60	1.227	1.037
2780.16	1.227	1.048
2780.72	1.226	1.040
2781.28	1.226	1.034
2781.84	1.226	1.037
2782.40	1.226	1.037
2782.94	1.225	1.046
2783.54	1.226	1.042
2784.09	1.226	1.045
2784.65	1.224	1.040
2785.21	1.226	1.045
2785.75	1.224	1.038
2786.31	1.224	1.041
2786.87	1.224	1.037
2787.43	1.225	1.040
2787.99	1.223	1.048
2788.55	1.224	1.034
2789.11	1.224	1.031
2789.67	1.222	1.037
2790.23	1.222	1.045
2790.79	1.220	1.043
2791.35	1.221	1.037
2791.89	1.220	1.047
2792.43	1.220	1.047
2792.99	1.217	1.034
2793.55	1.218	1.037
2794.11	1.218	1.037
2794.67	1.217	1.043
2795.23	1.217	1.037
2795.79	1.216	1.048
2796.35	1.214	1.028
2796.91	1.213	1.043
2797.47	1.213	1.037
2798.01	1.216	1.038
2798.55	1.213	1.047
2799.08	1.211	1.041
2799.64	1.210	1.037
2800.20	1.211	1.037
2800.76	1.210	1.037
2801.32	1.209	1.037
2801.88	1.207	1.045
2802.44	1.208	1.043
2803.00	1.205	1.040
2803.56	1.206	1.043
2804.12	1.205	1.040
2804.68	1.204	1.040
2805.24	1.204	1.037
2805.80	1.203	1.028
2806.36	1.202	1.040
2806.92	1.203	1.037
2807.48	1.201	1.028
2808.04	1.200	1.034
2808.60	1.200	1.040
2809.16	1.200	1.031
2809.72	1.200	1.034
2810.28	1.199	1.025
2810.84	1.199	1.045
2811.40	1.198	1.028
2811.96	1.197	1.034
2812.52	1.195	1.028
2813.08	1.195	1.034
2813.64	1.195	1.031
2814.20	1.195	1.025
2814.76	1.193	1.045
2815.32	1.193	1.037
2815.88	1.194	1.045
2816.44	1.191	1.051
2817.00	1.191	1.040
2817.56	1.192	1.043
2818.12	1.190	1.037
2818.68	1.190	1.043
2819.24	1.189	1.043
2819.80	1.189	1.043
2820.36	1.186	1.025
2820.92	1.187	1.031
2821.48	1.188	1.028
2822.04	1.187	1.037
2822.60	1.187	1.017
2823.16	1.186	1.034
2823.72	1.186	1.028
2824.28	1.187	1.040
2824.84	1.186	1.028
2825.40	1.184	1.031
2825.96	1.184	1.045
2826.52	1.185	1.031
2827.08	1.183	1.034
2827.64	1.181	1.031
2828.20	1.182	1.037
2828.76	1.183	1.031
2829.32	1.183	1.040
2829.88	1.182	1.023
2830.44	1.180	1.043
2831.00	1.180	1.034
2831.56	1.180	1.025
2832.12	1.179	1.034
2832.68	1.179	1.034
2833.24	1.178	1.037
2833.80	1.180	1.034
2834.36	1.178	1.037
2834.92	1.176	1.028
2835.48	1.176	1.040
2836.04	1.176	1.040
2836.60	1.174	1.034
2837.16	1.174	1.031
2837.72	1.173	1.043
2838.28	1.174	1.034
2838.84	1.173	1.025
2839.40	1.173	1.040
2839.96	1.172	1.040
2840.52	1.172	1.034
2841.08	1.171	1.037
2841.64	1.169	1.034
2842.20	1.169	1.028
2842.76	1.170	1.028
2843.32	1.167	1.040
2843.88	1.166	1.028
2844.44	1.168	1.031
2845.00	1.167	1.034
2845.56	1.167	1.028
2846.12	1.167	1.031
2846.68	1.164	1.040
2847.24	1.163	1.037
2847.80	1.162	1.028
2848.36	1.164	1.034
2848.92	1.160	1.031
2849.48	1.161	1.025
2850.04	1.160	1.031
2850.60	1.162	1.031
2851.16	1.159	1.037
2851.72	1.159	1.028
2852.28	1.159	1.034
2852.83	1.162	1.025
2853.39	1.158	1.031
2853.95	1.158	1.034
2854.51	1.158	1.031
2855.07	1.155	1.040
2855.61	1.154	1.038
2856.17	1.155	1.031
2856.73	1.156	1.031
2857.29	1.151	1.052
2857.83	1.151	1.021
2858.36	1.152	1.025
2858.90	1.151	1.062
2859.46	1.151	1.031
2860.00	1.152	1.028
2860.67	1.150	1.033
2861.35	1.151	1.025
2861.92	1.149	1.034
2862.47	1.147	1.025
2863.04	1.147	1.025
2863.62	1.147	1.025
2864.16	1.147	1.025
2864.71	1.147	1.035
2865.27	1.147	1.028
2865.81	1.146	1.028
2866.35	1.147	1.022
2866.91	1.146	1.023
2867.47	1.145	1.028
2868.03	1.144	1.034
2868.57	1.145	1.025
2869.12	1.144	1.025
2869.67	1.144	1.034
2871.02	1.144	1.044
2871.58	1.143	1.022
2872.14	1.141	1.037
2872.68	1.139	1.028
2873.23	1.141	1.025
2873.79	1.139	1.023
2874.34	1.139	1.031
2874.89	1.140	1.034
2875.44	1.139	1.028
2875.99	1.137	1.025
2876.54	1.140	1.034
2877.09	1.138	1.028
2877.65	1.138	1.031
2878.19	1.138	1.022
2878.74	1.137	1.028
2879.29	1.136	1.028
2879.85	1.136	1.025
2880.39	1.134	1.028
2880.94	1.136	1.023
2881.49	1.135	1.023
2882.04	1.133	1.028
2882.60	1.134	1.025
2883.16	1.132	1.034
2883.71	1.135	1.025
2884.27	1.133	1.031
2884.82	1.131	1.028
2885.37	1.131	1.025
2885.92	1.130	1.025
2886.48	1.130	1.028
2887.01	1.129	1.028
2887.56	1.130	1.031
2888.10	1.129	1.031
2888.65	1.128	1.028
2889.20	1.129	1.020
2889.75	1.128	1.017
2890.31	1.127	1.025
2890.86	1.125	1.025
2891.41	1.125	1.020
2891.96	1.124	1.023
2892.51	1.125	1.025
2893.07	1.125	1.028
2893.62	1.124	1.023
2894.17	1.123	1.031
2894.72	1.123	1.028
2895.27	1.123	1.023
2895.83	1.119	1.031
2896.38	1.119	1.025
2896.93	1.118	1.023
2897.48	1.118	1.020
2898.03	1.118	1.031
2898.59	1.118	1.023
2899.14	1.118	1.014
2899.69	1.118	1.025
2900.24	1.119	1.034
2900.79	1.116	1.023
2901.35	1.115	1.031
2901.90	1.115	1.031
2902.45	1.116	1.023
2903.01	1.113	1.023
2903.56	1.115	1.034
2904.11	1.113	1.034
2904.67	1.114	1.020
2905.22	1.114	1.025
2905.77	1.114	1.017
2906.32	1.113	1.023
2906.87	1.113	1.025
2907.43	1.111	1.031
2907.99	1.111	1.025
2908.54	1.110	1.025
2909.09	1.109	1.023
2909.64	1.109	1.028
2910.19	1.108	1.028
2910.75	1.109	1.025
2911.31	1.107	1.025
2911.87	1.108	1.025
2912.43	1.106	1.025
2912.98	1.105	1.034
2913.53	1.105	1.025
2914.08	1.104	1.031
2914.63	1.102	1.025
2915.19	1.105	1.028
2915.74	1.102	1.034
2916.29	1.101	1.023
2916.84	1.104	1.020
2917.39	1.101	1.028
2917.95	1.102	1.017
2918.50	1.100	1.025
2919.06	1.099	1.025
2919.61	1.100	1.025
2920.16	1.099	1.025
2920.72	1.099	1.028
2921.28	1.099	1.034
2921.83	1.097	1.023
2922.39	1.099	1.020
2922.95	1.095	1.025
2923.51	1.095	1.017
2924.07	1.094	1.037
2924.63	1.093	1.023
2925.19	1.094	1.023
2925.75	1.093	1.025
2926.31	1.093	1.023
2926.87	1.092	1.034
2927.43	1.092	1.023
2927.98	1.091	1.025
2928.54	1.091	1.031
2929.10	1.092	1.020
2929.66	1.091	1.028
2930.22	1.091	1.023
2930.78	1.088	1.028
2931.31	1.087	1.019
2931.87	1.086	1.020
2932.43	1.086	1.017
2932.99	1.087	1.023
2933.55	1.086	1.023
2934.11	1.084	1.025
2934.67	1.083	1.020
2935.23	1.083	1.031
2935.79	1.083	1.023
2936.35	1.083	1.017
2936.91	1.082	1.025
2937.48	1.080	1.025
2938.04	1.080	1.025
2938.60	1.079	1.020
2939.15	1.079	1.023
2939.71	1.080	1.025
2940.27	1.078	1.023
2940.83	1.077	1.025
2941.39	1.076	1.023
2941.95	1.078	1.017
2942.51	1.075	1.014
2943.06	1.075	1.019
2943.59	1.076	1.022
2944.15	1.075	1.017
2944.71	1.076	1.023
2945.27	1.073	1.025
2945.83	1.076	1.020
2946.39	1.075	1.025
2946.95	1.074	1.008
2947.51	1.074	1.017
2948.07	1.073	1.025
2948.61	1.073	1.025
2949.16	1.073	1.023
2949.72	1.073	1.023
2950.28	1.072	1.020
