Neel Temperature Data File
Tuesday, November 24, 2015 - 9:53 AM

Time (S)	Wheatstone (mV)	Temp (mV)
2.30	0.078	0.820
4.36	0.088	0.820
6.41	0.097	0.815
8.47	0.100	0.818
10.52	0.107	0.815
12.57	0.108	0.816
14.61	0.053	0.816
16.67	0.038	0.818
18.73	0.039	0.817
20.77	0.039	0.819
22.82	0.034	0.816
24.87	0.032	0.816
26.92	0.037	0.819
28.97	0.043	0.815
31.01	0.041	0.818
33.06	0.041	0.817
35.11	0.088	0.817
37.17	0.125	0.819
39.22	0.126	0.816
41.28	0.128	0.820
43.33	0.127	0.814
45.39	0.127	0.815
47.45	0.129	0.817
49.50	0.128	0.816
51.56	0.129	0.815
53.61	0.130	0.816
55.67	0.132	0.817
57.73	0.131	0.818
59.78	0.137	0.818
61.84	0.141	0.817
63.89	0.149	0.815
65.96	0.152	0.817
67.99	0.151	0.817
70.05	0.147	0.818
72.10	0.158	0.817
74.16	0.161	0.818
76.21	0.157	0.816
78.27	0.157	0.817
80.33	0.154	0.816
82.38	0.154	0.819
84.44	0.152	0.814
86.49	0.155	0.816
88.55	0.159	0.818
90.61	0.154	0.815
92.66	0.152	0.815
94.72	0.149	0.817
96.77	0.156	0.817
98.83	0.171	0.818
100.88	0.169	0.813
102.94	0.166	0.817
105.00	0.165	0.816
107.05	0.164	0.818
109.11	0.164	0.816
111.17	0.164	0.819
113.22	0.171	0.813
115.28	0.174	0.818
117.33	0.168	0.817
119.39	0.171	0.818
121.44	0.172	0.819
123.50	0.169	0.816
125.56	0.167	0.818
127.61	0.164	0.816
129.67	0.164	0.818
131.73	0.163	0.818
133.78	0.163	0.816
135.84	0.159	0.816
137.89	0.163	0.817
139.95	0.170	0.816
142.01	0.171	0.816
144.06	0.165	0.818
146.12	0.171	0.818
148.17	0.168	0.817
150.23	0.165	0.818
152.29	0.164	0.816
154.34	0.162	0.818
156.40	0.160	0.819
158.45	0.159	0.819
160.51	0.159	0.821
162.57	0.158	0.818
164.62	0.156	0.820
166.68	0.163	0.815
168.73	0.160	0.819
170.79	0.157	0.817
172.84	0.161	0.820
174.90	0.159	0.815
176.96	0.158	0.820
179.01	0.155	0.820
181.07	0.153	0.818
183.13	0.151	0.818
185.18	0.150	0.818
187.24	0.150	0.820
189.29	0.147	0.819
191.35	0.147	0.822
193.41	0.154	0.816
195.46	0.154	0.822
197.52	0.149	0.821
199.57	0.150	0.818
201.63	0.149	0.821
203.69	0.148	0.820
205.74	0.145	0.822
207.80	0.144	0.821
209.85	0.144	0.821
211.91	0.142	0.821
213.97	0.141	0.821
216.02	0.138	0.821
218.08	0.137	0.821
220.13	0.142	0.821
222.19	0.143	0.822
224.24	0.139	0.822
226.30	0.141	0.822
228.36	0.138	0.822
230.41	0.136	0.821
232.47	0.134	0.823
234.53	0.133	0.823
236.58	0.130	0.821
238.64	0.128	0.823
240.69	0.127	0.827
242.75	0.123	0.824
244.81	0.124	0.822
246.86	0.128	0.827
248.92	0.128	0.825
250.97	0.124	0.828
253.03	0.126	0.828
255.09	0.123	0.830
257.14	0.121	0.831
259.20	0.116	0.830
261.25	0.113	0.831
263.31	0.111	0.831
265.37	0.109	0.830
267.42	0.108	0.831
269.48	0.104	0.831
271.53	0.104	0.834
273.59	0.107	0.833
275.65	0.106	0.834
277.70	0.102	0.833
279.76	0.101	0.835
281.81	0.095	0.835
283.87	0.090	0.833
285.93	0.085	0.834
287.98	0.081	0.836
290.04	0.077	0.835
292.09	0.074	0.834
294.15	0.070	0.835
296.20	0.067	0.834
298.26	0.065	0.837
300.32	0.068	0.835
302.37	0.067	0.836
304.43	0.061	0.836
306.49	0.060	0.836
308.54	0.055	0.840
310.60	0.050	0.838
312.65	0.046	0.839
314.71	0.042	0.838
316.77	0.038	0.843
318.82	0.033	0.840
320.88	0.028	0.839
322.93	0.024	0.842
324.99	0.022	0.846
327.05	0.024	0.844
329.10	0.023	0.846
331.16	0.018	0.848
333.19	0.015	0.848
335.25	0.010	0.849
337.30	0.006	0.848
339.36	0.001	0.849
341.41	-0.004	0.851
343.45	-0.010	0.853
345.50	-0.013	0.851
347.56	-0.017	0.851
349.61	-0.021	0.849
351.67	-0.022	0.852
353.73	-0.021	0.852
355.78	-0.023	0.858
357.84	-0.029	0.856
359.89	-0.032	0.858
361.95	-0.037	0.856
364.00	-0.043	0.859
366.06	-0.049	0.863
368.12	-0.056	0.864
370.17	-0.060	0.863
372.23	-0.063	0.866
374.26	-0.070	0.864
376.32	-0.074	0.867
378.37	-0.074	0.869
380.43	-0.073	0.872
382.48	-0.077	0.867
384.54	-0.085	0.870
386.60	-0.089	0.868
388.65	-0.096	0.871
390.71	-0.103	0.872
392.77	-0.108	0.872
394.82	-0.113	0.877
396.88	-0.117	0.877
398.93	-0.122	0.879
400.99	-0.129	0.880
403.05	-0.134	0.880
405.10	-0.136	0.880
407.16	-0.135	0.879
409.21	-0.140	0.880
411.27	-0.160	0.882
413.33	-0.163	0.883
415.38	-0.170	0.883
417.44	-0.175	0.883
419.49	-0.181	0.886
421.53	-0.188	0.886
423.58	-0.192	0.885
425.64	-0.197	0.889
427.69	-0.203	0.893
429.73	-0.208	0.893
431.78	-0.210	0.893
433.84	-0.212	0.894
435.89	-0.212	0.895
437.95	-0.205	0.895
440.01	-0.210	0.896
442.06	-0.216	0.897
444.12	-0.225	0.896
446.17	-0.230	0.897
448.23	-0.236	0.901
450.29	-0.242	0.901
452.34	-0.249	0.902
454.40	-0.254	0.901
456.45	-0.260	0.904
458.51	-0.278	0.906
460.54	-0.312	0.904
462.60	-0.320	0.910
464.65	-0.331	0.907
466.71	-0.336	0.911
468.76	-0.343	0.910
470.82	-0.349	0.916
472.88	-0.355	0.918
474.93	-0.362	0.917
476.99	-0.368	0.918
479.05	-0.373	0.920
481.10	-0.378	0.923
483.13	-0.383	0.923
485.19	-0.378	0.922
487.24	-0.364	0.926
489.30	-0.366	0.924
491.36	-0.379	0.927
493.41	-0.382	0.931
495.47	-0.389	0.930
497.53	-0.394	0.933
499.58	-0.399	0.935
501.64	-0.406	0.934
503.70	-0.410	0.935
505.76	-0.415	0.936
507.81	-0.420	0.936
509.87	-0.423	0.937
511.93	-0.427	0.938
513.98	-0.424	0.940
516.04	-0.409	0.939
518.09	-0.457	0.941
520.13	-0.486	0.944
522.18	-0.491	0.948
524.24	-0.496	0.949
526.29	-0.502	0.951
528.33	-0.507	0.950
530.38	-0.512	0.950
532.44	-0.517	0.952
534.49	-0.521	0.952
536.55	-0.527	0.954
538.60	-0.531	0.954
540.66	-0.530	0.954
542.72	-0.490	0.955
544.77	-0.489	0.959
546.83	-0.504	0.963
548.89	-0.505	0.963
550.94	-0.510	0.967
553.00	-0.516	0.967
555.05	-0.521	0.966
557.11	-0.527	0.966
559.16	-0.532	0.968
561.22	-0.535	0.968
563.28	-0.538	0.973
565.33	-0.542	0.971
567.39	-0.544	0.979
569.45	-0.519	0.977
571.50	-0.518	0.979
573.56	-0.562	0.985
575.59	-0.571	0.980
577.65	-0.574	0.983
579.70	-0.578	0.988
581.76	-0.586	0.987
583.81	-0.589	0.992
585.87	-0.592	0.993
587.93	-0.595	0.993
589.98	-0.598	0.993
592.04	-0.600	0.995
594.09	-0.602	0.996
596.15	-0.598	0.997
598.21	-0.604	0.998
600.26	-0.613	1.000
602.32	-0.614	0.999
604.37	-0.616	1.003
606.43	-0.620	1.008
608.48	-0.624	1.009
610.54	-0.627	1.011
612.60	-0.631	1.011
614.65	-0.633	1.013
616.71	-0.635	1.014
618.77	-0.636	1.013
620.82	-0.638	1.016
622.88	-0.628	1.020
624.93	-0.626	1.023
626.99	-0.633	1.022
629.04	-0.633	1.025
631.10	-0.635	1.028
633.16	-0.635	1.030
635.21	-0.638	1.032
637.27	-0.639	1.035
639.33	-0.640	1.035
641.38	-0.640	1.038
643.44	-0.641	1.040
645.49	-0.642	1.041
647.55	-0.641	1.042
649.61	-0.629	1.043
651.66	-0.626	1.043
653.72	-0.631	1.048
655.77	-0.630	1.050
657.83	-0.629	1.054
659.89	-0.630	1.054
661.94	-0.631	1.053
664.00	-0.630	1.058
666.05	-0.629	1.056
668.11	-0.628	1.057
670.17	-0.627	1.060
672.22	-0.625	1.058
674.28	-0.623	1.063
676.33	-0.610	1.067
678.39	-0.603	1.066
680.44	-0.605	1.071
682.50	-0.604	1.070
684.56	-0.602	1.071
686.61	-0.599	1.073
688.67	-0.598	1.077
690.73	-0.594	1.076
692.78	-0.592	1.081
694.84	-0.588	1.080
696.89	-0.583	1.082
698.95	-0.579	1.085
701.01	-0.575	1.085
703.06	-0.562	1.091
705.12	-0.551	1.094
707.17	-0.547	1.095
709.23	-0.543	1.097
711.29	-0.538	1.097
713.34	-0.535	1.100
715.40	-0.531	1.103
717.45	-0.526	1.108
719.51	-0.520	1.106
721.57	-0.513	1.111
723.62	-0.506	1.112
725.68	-0.499	1.113
727.73	-0.494	1.114
729.79	-0.478	1.116
731.84	-0.465	1.117
733.90	-0.459	1.122
735.96	-0.452	1.121
738.01	-0.444	1.121
740.07	-0.436	1.125
742.13	-0.428	1.129
744.18	-0.420	1.129
746.24	-0.412	1.129
748.29	-0.404	1.131
750.35	-0.394	1.134
752.41	-0.383	1.137
754.46	-0.374	1.141
756.52	-0.355	1.141
758.57	-0.339	1.142
760.63	-0.327	1.145
762.69	-0.318	1.147
764.74	-0.307	1.152
766.80	-0.297	1.154
768.85	-0.287	1.156
770.91	-0.276	1.157
772.97	-0.264	1.158
775.02	-0.253	1.159
777.08	-0.240	1.162
779.13	-0.226	1.165
781.19	-0.214	1.166
783.25	-0.198	1.169
785.30	-0.184	1.171
787.36	-0.172	1.173
789.41	-0.148	1.172
791.47	-0.129	1.173
793.53	-0.114	1.173
795.58	-0.101	1.179
797.64	-0.084	1.176
799.69	-0.069	1.179
801.75	-0.058	1.186
803.80	-0.042	1.186
805.86	-0.027	1.187
807.92	-0.015	1.187
809.97	0.001	1.190
812.03	0.019	1.191
814.09	0.038	1.195
816.14	0.056	1.198
818.20	0.086	1.201
820.25	0.105	1.203
822.31	0.117	1.206
824.37	0.136	1.208
826.42	0.154	1.210
828.48	0.169	1.209
830.53	0.189	1.212
832.59	0.208	1.216
834.65	0.226	1.216
836.70	0.245	1.219
838.75	0.264	1.220
840.81	0.282	1.223
842.86	0.303	1.226
844.89	0.335	1.229
846.95	0.361	1.232
849.01	0.386	1.231
851.06	0.401	1.232
853.12	0.422	1.232
855.17	0.440	1.239
857.21	0.458	1.238
859.26	0.478	1.242
861.32	0.500	1.242
863.35	0.519	1.245
865.38	0.541	1.248
867.44	0.563	1.252
869.49	0.586	1.250
871.55	0.605	1.256
873.60	0.628	1.260
875.66	0.651	1.259
877.72	0.685	1.264
879.77	0.714	1.264
881.83	0.733	1.265
883.89	0.755	1.271
885.92	0.778	1.275
887.97	0.797	1.275
890.03	0.819	1.276
892.09	0.840	1.278
894.14	0.866	1.282
896.20	0.889	1.286
898.25	0.913	1.287
900.31	0.935	1.290
902.37	0.959	1.289
904.42	0.992	1.292
906.48	1.021	1.294
908.53	1.042	1.297
910.59	1.065	1.298
912.65	1.087	1.301
914.70	1.109	1.304
916.76	1.133	1.304
918.81	1.154	1.306
920.87	1.181	1.304
922.93	1.204	1.310
924.98	1.224	1.307
927.04	1.245	1.315
929.09	1.269	1.319
931.15	1.299	1.320
932.18	1.328	1.322
933.21	1.337	1.322
934.25	1.356	1.322
935.28	1.359	1.321
936.31	1.371	1.323
937.34	1.382	1.324
938.37	1.394	1.327
939.41	1.405	1.331
940.44	1.416	1.330
941.50	1.427	1.335
942.53	1.439	1.334
943.56	1.449	1.337
944.60	1.458	1.338
945.63	1.469	1.337
946.66	1.479	1.334
947.69	1.491	1.341
948.73	1.503	1.338
949.76	1.515	1.343
950.79	1.527	1.345
951.82	1.537	1.345
952.85	1.547	1.344
953.89	1.558	1.347
954.92	1.571	1.348
955.95	1.582	1.348
956.98	1.594	1.348
958.01	1.605	1.352
959.05	1.629	1.351
960.08	1.636	1.352
961.12	1.655	1.352
962.15	1.666	1.356
963.18	1.671	1.353
964.21	1.681	1.360
965.25	1.692	1.358
966.28	1.700	1.362
967.31	1.710	1.364
968.34	1.718	1.363
969.37	1.729	1.362
970.41	1.739	1.363
971.44	1.749	1.360
972.47	1.757	1.361
973.50	1.770	1.366
974.53	1.778	1.366
975.57	1.789	1.364
976.63	1.801	1.368
977.66	1.812	1.372
978.69	1.820	1.368
979.73	1.832	1.366
980.76	1.844	1.371
981.79	1.851	1.374
982.82	1.858	1.375
983.85	1.868	1.375
984.89	1.879	1.375
985.92	1.888	1.380
986.95	1.917	1.381
987.98	1.918	1.381
989.01	1.938	1.382
990.05	1.942	1.384
991.08	1.947	1.384
992.11	1.958	1.385
993.17	1.968	1.379
994.20	1.976	1.380
995.24	1.984	1.388
996.27	1.994	1.391
997.30	2.002	1.391
998.33	2.008	1.393
999.37	2.016	1.392
1000.40	2.026	1.395
1001.43	2.035	1.398
1002.46	2.044	1.399
1003.49	2.054	1.402
1004.53	2.065	1.393
1005.56	2.074	1.401
1006.59	2.082	1.404
1007.62	2.092	1.402
1008.65	2.101	1.404
1009.69	2.111	1.401
1010.72	2.119	1.405
1011.75	2.125	1.406
1012.78	2.135	1.408
1013.81	2.150	1.408
1014.85	2.169	1.408
1015.88	2.169	1.407
1016.91	2.193	1.410
1017.94	2.195	1.409
1018.97	2.197	1.415
1020.01	2.206	1.417
1021.04	2.216	1.416
1022.07	2.224	1.418
1023.10	2.231	1.418
1024.13	2.238	1.421
1025.17	2.245	1.422
1026.20	2.253	1.422
1027.23	2.263	1.419
1028.29	2.273	1.421
1029.36	2.282	1.420
1030.39	2.289	1.422
1031.42	2.298	1.426
1032.45	2.309	1.423
1033.49	2.317	1.423
1034.52	2.324	1.424
1035.55	2.332	1.424
1036.58	2.342	1.429
1037.61	2.350	1.431
1038.65	2.358	1.433
1039.68	2.369	1.429
1040.71	2.379	1.435
1041.74	2.401	1.437
1042.77	2.405	1.434
1043.81	2.412	1.438
1044.84	2.427	1.433
1045.87	2.417	1.437
1046.93	2.414	1.438
1047.96	2.409	1.438
1049.00	2.399	1.440
1050.03	2.386	1.447
1051.06	2.369	1.445
1052.09	2.356	1.444
1053.13	2.350	1.447
1054.16	2.350	1.441
1055.19	2.354	1.447
1056.22	2.358	1.450
1057.25	2.367	1.451
1058.29	2.378	1.451
1059.32	2.388	1.452
1060.35	2.398	1.455
1061.38	2.409	1.454
1062.41	2.420	1.452
1063.48	2.431	1.457
1064.51	2.442	1.459
1065.54	2.452	1.464
1066.57	2.465	1.461
1067.61	2.473	1.465
1068.64	2.479	1.463
1069.67	2.508	1.466
1070.70	2.507	1.466
1071.73	2.527	1.467
1072.77	2.538	1.466
1073.80	2.538	1.467
1074.83	2.548	1.470
1075.86	2.557	1.468
1076.89	2.566	1.466
1077.93	2.576	1.468
1078.96	2.585	1.474
1079.99	2.594	1.475
1081.05	2.603	1.477
1082.08	2.612	1.475
1083.12	2.620	1.477
1084.15	2.628	1.480
1085.18	2.636	1.478
1086.21	2.648	1.482
1087.25	2.657	1.483
1088.28	2.665	1.481
1089.31	2.675	1.485
1090.34	2.685	1.485
1091.37	2.693	1.484
1092.41	2.703	1.492
1093.44	2.713	1.492
1094.47	2.719	1.490
1095.50	2.730	1.490
1096.53	2.756	1.494
1097.57	2.763	1.494
1098.63	2.767	1.493
1099.66	2.788	1.495
1100.69	2.786	1.499
1101.73	2.790	1.504
1102.76	2.797	1.500
1103.79	2.806	1.502
1104.82	2.815	1.503
1105.85	2.820	1.501
1106.89	2.828	1.506
1107.92	2.836	1.509
1108.95	2.846	1.507
1109.98	2.852	1.508
1111.01	2.859	1.509
1112.05	2.868	1.509
1113.08	2.876	1.510
1114.11	2.883	1.510
1115.14	2.894	1.515
1116.21	2.900	1.511
1117.24	2.907	1.511
1118.27	2.914	1.512
1119.30	2.923	1.519
1120.33	2.934	1.516
1121.37	2.942	1.523
1122.40	2.947	1.521
1123.43	2.954	1.520
1124.46	2.981	1.523
1125.49	2.982	1.522
1126.53	2.994	1.526
1127.56	3.009	1.523
1128.59	3.004	1.525
1129.62	3.013	1.524
1130.65	3.019	1.527
1131.69	3.025	1.529
1132.72	3.033	1.531
1133.75	3.041	1.528
1134.78	3.048	1.529
1135.81	3.055	1.531
1136.85	3.061	1.536
1137.88	3.068	1.538
1138.91	3.075	1.536
1139.94	3.084	1.536
1140.97	3.095	1.537
1142.01	3.100	1.538
1143.04	3.103	1.539
1144.07	3.110	1.539
1145.10	3.119	1.539
1146.13	3.126	1.543
1147.17	3.132	1.543
1148.20	3.139	1.543
1149.23	3.148	1.543
1150.26	3.157	1.542
1151.32	3.170	1.548
1152.36	3.191	1.550
1153.39	3.188	1.553
1154.42	3.207	1.553
1155.45	3.214	1.550
1156.49	3.211	1.554
1157.52	3.218	1.554
1158.55	3.225	1.552
1159.58	3.234	1.555
1160.61	3.241	1.556
1161.65	3.246	1.557
1162.68	3.252	1.556
1163.71	3.258	1.561
1164.74	3.264	1.562
1165.77	3.272	1.564
1166.81	3.280	1.562
1167.84	3.289	1.561
1168.90	3.293	1.567
1169.93	3.300	1.569
1170.96	3.310	1.569
1172.00	3.317	1.569
1173.03	3.326	1.571
1174.06	3.332	1.572
1175.09	3.338	1.575
1176.13	3.343	1.574
1177.16	3.350	1.581
1178.19	3.361	1.578
1179.22	3.389	1.580
1180.25	3.387	1.580
1181.29	3.397	1.580
1182.32	3.412	1.581
1183.35	3.407	1.584
1184.38	3.416	1.583
1185.41	3.419	1.583
1186.48	3.425	1.584
1187.51	3.432	1.588
1188.54	3.438	1.586
1189.57	3.446	1.584
1190.61	3.461	1.588
1191.64	3.472	1.587
1192.67	3.483	1.591
1193.70	3.494	1.595
1194.73	3.503	1.593
1195.77	3.498	1.593
1196.80	3.502	1.593
1197.83	3.519	1.590
1198.86	3.542	1.592
1199.89	3.548	1.592
1200.93	3.551	1.592
1201.96	3.552	1.592
1202.99	3.556	1.588
1204.05	3.560	1.591
1205.08	3.562	1.592
1206.12	3.580	1.592
1207.15	3.577	1.593
1208.18	3.571	1.599
1209.21	3.586	1.590
1210.25	3.572	1.589
1211.28	3.572	1.592
1212.31	3.572	1.594
1213.34	3.573	1.589
1214.37	3.572	1.588
1215.41	3.570	1.593
1216.44	3.571	1.597
1217.47	3.569	1.590
1218.50	3.571	1.590
1219.53	3.570	1.596
1220.57	3.570	1.595
1221.60	3.570	1.594
1222.63	3.571	1.594
1223.66	3.570	1.590
1224.69	3.570	1.590
1225.73	3.569	1.585
1226.76	3.570	1.589
1227.79	3.571	1.592
1228.82	3.570	1.590
1229.85	3.570	1.594
1230.89	3.571	1.589
1231.92	3.571	1.592
1232.95	3.583	1.590
1233.98	3.595	1.585
1235.01	3.588	1.595
1236.05	3.589	1.588
1237.08	3.593	1.593
1238.14	3.582	1.591
1239.17	3.583	1.591
1240.20	3.583	1.587
1241.24	3.582	1.587
1242.27	3.580	1.593
1243.30	3.581	1.589
1244.33	3.580	1.590
1245.37	3.579	1.588
1246.40	3.579	1.593
1247.43	3.578	1.592
1248.46	3.576	1.589
1249.49	3.576	1.587
1250.53	3.575	1.591
1251.56	3.575	1.593
1252.59	3.575	1.588
1253.62	3.575	1.596
1254.65	3.575	1.589
1255.72	3.573	1.590
1256.78	3.574	1.589
1257.81	3.573	1.588
1258.85	3.573	1.596
1259.88	3.577	1.585
1260.91	3.571	1.586
1261.94	3.570	1.592
1262.97	3.571	1.587
1264.01	3.570	1.589
1265.04	3.570	1.591
1266.07	3.571	1.589
1267.10	3.571	1.589
1268.13	3.569	1.590
1269.17	3.569	1.589
1270.20	3.566	1.587
1271.23	3.566	1.588
1272.26	3.564	1.588
1273.32	3.563	1.593
1274.36	3.561	1.588
1275.39	3.561	1.584
1276.42	3.559	1.585
1277.45	3.559	1.588
1278.49	3.559	1.590
1279.52	3.558	1.585
1280.55	3.559	1.587
1281.58	3.556	1.588
1282.61	3.556	1.583
1283.65	3.555	1.588
1284.68	3.553	1.585
1285.71	3.552	1.582
1286.74	3.554	1.586
1287.77	3.557	1.588
1288.81	3.558	1.590
1289.84	3.559	1.584
1290.90	3.558	1.586
1291.93	3.557	1.590
1292.96	3.558	1.585
1294.00	3.559	1.584
1295.03	3.557	1.585
1296.06	3.554	1.584
1297.09	3.552	1.585
1298.13	3.553	1.586
1299.16	3.552	1.586
1300.19	3.550	1.592
1301.22	3.550	1.588
1302.25	3.549	1.587
1303.29	3.549	1.585
1304.32	3.548	1.587
1305.35	3.546	1.587
1306.38	3.545	1.583
1307.41	3.544	1.580
1308.45	3.544	1.587
1309.51	3.542	1.584
1310.54	3.542	1.583
1311.57	3.541	1.585
1312.61	3.540	1.589
1313.64	3.543	1.582
1314.67	3.545	1.579
1315.70	3.546	1.584
1316.73	3.547	1.584
1317.77	3.549	1.584
1318.80	3.549	1.582
1319.83	3.547	1.584
1320.86	3.549	1.582
1321.89	3.547	1.582
1322.93	3.547	1.584
1323.96	3.546	1.582
1324.99	3.543	1.584
1326.05	3.542	1.584
1327.08	3.539	1.584
1328.12	3.539	1.583
1329.15	3.537	1.582
1330.18	3.535	1.582
1331.21	3.534	1.582
1332.25	3.533	1.582
1333.28	3.532	1.583
1334.31	3.533	1.584
1335.34	3.533	1.583
1336.37	3.533	1.583
1337.41	3.533	1.584
1338.44	3.531	1.583
1339.47	3.532	1.580
1340.50	3.532	1.582
1341.53	3.531	1.583
1342.57	3.531	1.581
1343.63	3.530	1.583
1344.66	3.531	1.582
1345.69	3.530	1.582
1346.73	3.531	1.581
1347.76	3.533	1.581
1348.79	3.535	1.579
1349.82	3.537	1.579
1350.85	3.533	1.582
1351.89	3.535	1.582
1352.92	3.534	1.580
1353.95	3.534	1.582
1354.98	3.532	1.582
1356.01	3.533	1.583
1357.05	3.531	1.582
1358.08	3.530	1.581
1359.11	3.530	1.582
1360.14	3.528	1.580
1361.21	3.527	1.582
1362.24	3.525	1.581
1363.27	3.524	1.581
1364.30	3.524	1.581
1365.33	3.523	1.583
1366.37	3.521	1.583
1367.40	3.521	1.580
1368.43	3.518	1.582
1369.46	3.519	1.582
1370.49	3.517	1.581
1371.53	3.517	1.582
1372.56	3.517	1.582
1373.59	3.520	1.581
1374.62	3.520	1.582
1375.65	3.521	1.580
1376.69	3.522	1.582
1377.72	3.518	1.580
1378.78	3.518	1.578
1379.81	3.519	1.579
1380.84	3.518	1.578
1381.88	3.518	1.576
1382.91	3.517	1.584
1383.94	3.514	1.582
1384.97	3.513	1.579
1386.01	3.511	1.576
1387.04	3.511	1.580
1388.07	3.508	1.573
1389.10	3.508	1.580
1390.13	3.505	1.579
1391.17	3.504	1.572
1392.20	3.503	1.579
1393.23	3.502	1.580
1394.26	3.501	1.578
1395.29	3.501	1.581
1396.36	3.501	1.579
1397.39	3.499	1.579
1398.42	3.500	1.577
1399.45	3.500	1.577
1400.49	3.504	1.579
1401.52	3.503	1.580
1402.55	3.503	1.577
1403.58	3.503	1.575
1404.61	3.501	1.580
1405.65	3.503	1.576
1406.68	3.503	1.573
1407.71	3.503	1.576
1408.74	3.501	1.576
1409.77	3.499	1.576
1410.81	3.497	1.572
1411.84	3.496	1.573
1412.87	3.495	1.572
1413.93	3.495	1.571
1414.96	3.494	1.575
1416.00	3.493	1.572
1417.03	3.494	1.572
1418.06	3.493	1.576
1419.09	3.492	1.576
1420.13	3.492	1.572
1421.16	3.489	1.576
1422.19	3.490	1.576
1423.22	3.487	1.570
1424.25	3.489	1.575
1425.29	3.486	1.576
1426.32	3.489	1.568
1427.35	3.490	1.567
1428.38	3.491	1.572
1429.41	3.492	1.572
1430.45	3.492	1.577
1431.51	3.492	1.573
1432.54	3.491	1.572
1433.57	3.490	1.567
1434.61	3.490	1.569
1435.64	3.488	1.577
1436.67	3.487	1.575
1437.70	3.484	1.576
1438.73	3.484	1.572
1439.77	3.481	1.569
1440.80	3.480	1.574
1441.83	3.479	1.570
1442.86	3.476	1.570
1443.89	3.477	1.569
1444.93	3.476	1.569
1445.96	3.475	1.572
1446.99	3.474	1.566
1448.02	3.472	1.572
1449.08	3.471	1.568
1450.12	3.471	1.569
1451.15	3.470	1.572
1452.18	3.469	1.568
1453.21	3.468	1.568
1454.25	3.468	1.570
1455.28	3.466	1.570
1456.31	3.465	1.569
1457.34	3.464	1.566
1458.37	3.466	1.567
1459.41	3.469	1.567
1460.44	3.469	1.571
1461.47	3.472	1.568
1462.50	3.470	1.572
1463.53	3.469	1.571
1464.57	3.468	1.567
1465.60	3.467	1.566
1466.66	3.466	1.567
1467.69	3.464	1.568
1468.73	3.463	1.568
1469.76	3.461	1.569
1470.79	3.459	1.566
1471.82	3.457	1.566
1472.85	3.456	1.565
1473.89	3.454	1.566
1474.92	3.453	1.568
1475.95	3.452	1.565
1476.98	3.452	1.562
1478.01	3.450	1.565
1479.05	3.450	1.565
1480.08	3.448	1.569
1481.11	3.447	1.568
1482.14	3.447	1.566
1483.17	3.446	1.568
1484.24	3.446	1.566
1485.27	3.451	1.568
1486.30	3.450	1.564
1487.33	3.450	1.561
1488.37	3.450	1.561
1489.40	3.448	1.564
1490.43	3.448	1.562
1491.46	3.446	1.561
1492.49	3.445	1.565
1493.53	3.445	1.567
1494.56	3.445	1.562
1495.59	3.443	1.562
1496.62	3.441	1.566
1497.65	3.440	1.566
1498.69	3.440	1.566
1499.72	3.439	1.559
1500.75	3.436	1.560
1501.81	3.436	1.564
1502.84	3.434	1.558
1503.88	3.433	1.559
1504.91	3.433	1.560
1505.94	3.431	1.557
1506.97	3.428	1.556
1508.01	3.427	1.563
1509.04	3.428	1.559
1510.07	3.426	1.558
1511.10	3.428	1.559
1512.13	3.429	1.560
1513.17	3.429	1.562
1514.20	3.431	1.558
1515.23	3.428	1.559
1516.26	3.428	1.557
1517.29	3.429	1.558
1518.33	3.427	1.559
1519.36	3.426	1.555
1520.39	3.424	1.555
1521.42	3.422	1.560
1522.45	3.420	1.557
1523.49	3.420	1.555
1524.52	3.419	1.554
1525.55	3.417	1.560
1526.58	3.416	1.554
1527.61	3.415	1.555
1528.65	3.414	1.556
1529.68	3.413	1.556
1530.71	3.413	1.555
1531.74	3.413	1.556
1532.77	3.412	1.554
1533.81	3.409	1.551
1534.84	3.409	1.552
1535.90	3.410	1.553
1536.96	3.410	1.553
1538.00	3.411	1.555
1539.03	3.411	1.553
1540.06	3.411	1.555
1541.09	3.413	1.555
1542.13	3.410	1.550
1543.16	3.411	1.551
1544.19	3.410	1.554
1545.22	3.409	1.555
1546.25	3.404	1.555
1547.29	3.402	1.554
1548.32	3.400	1.550
1549.35	3.396	1.550
1550.38	3.395	1.550
1551.41	3.393	1.555
1552.45	3.391	1.551
1553.51	3.388	1.549
1554.54	3.387	1.554
1555.57	3.385	1.551
1556.61	3.383	1.547
1557.64	3.384	1.547
1558.67	3.381	1.551
1559.70	3.380	1.551
1560.73	3.378	1.550
1561.77	3.377	1.551
1562.80	3.374	1.548
1563.83	3.379	1.546
1564.86	3.380	1.547
1565.89	3.379	1.544
1566.93	3.380	1.547
1567.96	3.376	1.544
1568.99	3.376	1.548
1570.02	3.376	1.549
1571.09	3.374	1.547
1572.15	3.373	1.549
1573.18	3.372	1.544
1574.21	3.370	1.549
1575.25	3.368	1.549
1576.28	3.366	1.550
1577.31	3.365	1.546
1578.34	3.364	1.546
1579.37	3.362	1.544
1580.41	3.361	1.550
1581.44	3.358	1.547
1582.47	3.359	1.542
1583.50	3.356	1.544
1584.53	3.356	1.544
1585.57	3.354	1.544
1586.60	3.352	1.543
1587.63	3.351	1.539
1588.69	3.349	1.546
1589.72	3.353	1.548
1590.76	3.354	1.542
1591.79	3.353	1.544
1592.82	3.355	1.546
1593.85	3.349	1.543
1594.89	3.350	1.540
1595.92	3.349	1.542
1596.95	3.349	1.541
1597.98	3.345	1.539
1599.01	3.346	1.538
1600.05	3.343	1.540
1601.08	3.341	1.543
1602.11	3.338	1.540
1603.14	3.336	1.540
1604.17	3.336	1.541
1605.21	3.334	1.539
1606.27	3.333	1.542
1607.30	3.332	1.540
1608.33	3.329	1.540
1609.37	3.330	1.539
1610.40	3.330	1.539
1611.43	3.325	1.542
1612.46	3.325	1.540
1613.49	3.323	1.538
1614.53	3.322	1.539
1615.56	3.323	1.538
1616.59	3.326	1.537
1617.62	3.326	1.539
1618.65	3.326	1.539
1619.69	3.322	1.539
1620.72	3.320	1.541
1621.75	3.321	1.539
1622.78	3.320	1.539
1623.84	3.318	1.538
1624.88	3.316	1.539
1625.91	3.314	1.537
1626.94	3.312	1.535
1627.97	3.310	1.535
1629.01	3.308	1.534
1630.04	3.304	1.536
1631.07	3.303	1.540
1632.10	3.301	1.537
1633.13	3.301	1.538
1634.17	3.297	1.533
1635.20	3.296	1.538
1636.23	3.294	1.535
1637.26	3.293	1.535
1638.29	3.292	1.537
1639.33	3.289	1.539
1640.36	3.288	1.539
1641.42	3.289	1.535
1642.45	3.292	1.533
1643.49	3.291	1.532
1644.52	3.290	1.534
1645.55	3.289	1.535
1646.58	3.287	1.531
1647.61	3.288	1.531
1648.65	3.286	1.531
1649.68	3.285	1.531
1650.71	3.282	1.535
1651.74	3.279	1.533
1652.77	3.276	1.528
1653.81	3.274	1.528
1654.84	3.273	1.534
1655.87	3.270	1.533
1656.90	3.268	1.534
1657.93	3.267	1.526
1659.00	3.264	1.527
1660.03	3.263	1.533
1661.06	3.260	1.533
1662.09	3.260	1.528
1663.13	3.259	1.525
1664.16	3.257	1.528
1665.19	3.256	1.527
1666.22	3.256	1.526
1667.25	3.253	1.530
1668.29	3.257	1.528
1669.32	3.256	1.527
1670.35	3.258	1.525
1671.38	3.256	1.527
1672.41	3.252	1.529
1673.45	3.252	1.526
1674.48	3.251	1.527
1675.51	3.250	1.530
1676.57	3.249	1.525
1677.60	3.245	1.525
1678.64	3.244	1.525
1679.67	3.242	1.527
1680.70	3.241	1.525
1681.73	3.239	1.523
1682.77	3.237	1.526
1683.80	3.235	1.523
1684.83	3.232	1.526
1685.86	3.229	1.525
1686.89	3.229	1.525
1687.93	3.226	1.523
1688.96	3.223	1.523
1689.99	3.222	1.524
1691.02	3.221	1.524
1692.05	3.220	1.523
1693.09	3.218	1.523
1694.15	3.220	1.524
1695.18	3.222	1.524
1696.21	3.221	1.523
1697.25	3.221	1.523
1698.28	3.218	1.524
1699.31	3.217	1.524
1700.34	3.217	1.523
1701.37	3.216	1.523
1702.41	3.215	1.524
1703.44	3.212	1.523
1704.47	3.210	1.521
1705.50	3.209	1.520
1706.53	3.207	1.524
1707.57	3.205	1.524
1708.60	3.203	1.523
1709.63	3.200	1.523
1710.66	3.199	1.521
1711.69	3.196	1.520
1712.72	3.196	1.518
1713.76	3.194	1.519
1714.79	3.192	1.518
1715.82	3.190	1.522
1716.85	3.188	1.519
1717.89	3.187	1.521
1718.92	3.186	1.520
1719.95	3.185	1.519
1720.98	3.189	1.518
1722.01	3.189	1.514
1723.05	3.190	1.518
1724.08	3.188	1.520
1725.11	3.184	1.520
1726.14	3.183	1.520
1727.17	3.183	1.514
1728.24	3.182	1.518
1729.30	3.179	1.516
1730.33	3.178	1.518
1731.37	3.176	1.518
1732.40	3.174	1.518
1733.43	3.171	1.516
1734.46	3.170	1.511
1735.49	3.169	1.513
1736.53	3.168	1.514
1737.56	3.165	1.517
1738.59	3.164	1.512
1739.62	3.162	1.518
1740.65	3.160	1.514
1741.69	3.158	1.512
1742.72	3.159	1.511
1743.75	3.157	1.512
1744.78	3.155	1.512
1745.81	3.153	1.512
1746.88	3.157	1.510
1747.91	3.157	1.511
1748.94	3.157	1.513
1749.97	3.156	1.515
1751.01	3.151	1.511
1752.04	3.153	1.509
1753.07	3.152	1.510
1754.10	3.149	1.512
1755.13	3.148	1.512
1756.17	3.145	1.511
1757.20	3.142	1.513
1758.23	3.139	1.510
1759.26	3.139	1.510
1760.29	3.136	1.509
1761.33	3.134	1.508
1762.36	3.135	1.511
1763.39	3.132	1.511
1764.42	3.131	1.508
1765.45	3.129	1.509
1766.49	3.127	1.508
1767.52	3.125	1.509
1768.55	3.124	1.509
1769.58	3.123	1.509
1770.61	3.121	1.509
1771.65	3.121	1.508
1772.68	3.121	1.510
1773.71	3.123	1.502
1774.74	3.122	1.506
1775.77	3.123	1.509
1776.81	3.119	1.509
1777.84	3.118	1.509
1778.87	3.117	1.508
1779.90	3.117	1.507
1780.97	3.113	1.510
1782.00	3.112	1.506
1783.03	3.109	1.508
1784.06	3.106	1.505
1785.09	3.103	1.506
1786.13	3.103	1.506
1787.16	3.102	1.506
1788.19	3.100	1.507
1789.22	3.100	1.506
1790.25	3.099	1.505
1791.29	3.099	1.507
1792.32	3.095	1.507
1793.35	3.094	1.507
1794.38	3.092	1.500
1795.41	3.091	1.501
1796.45	3.089	1.503
1797.48	3.088	1.502
1798.51	3.087	1.499
1799.57	3.091	1.503
1800.60	3.089	1.498
1801.64	3.091	1.499
1802.67	3.086	1.495
1803.70	3.084	1.500
1804.73	3.083	1.501
1805.77	3.080	1.497
1806.80	3.078	1.500
1807.83	3.077	1.502
1808.86	3.075	1.503
1809.89	3.071	1.496
1810.93	3.069	1.496
1811.96	3.066	1.497
1812.99	3.066	1.502
1814.02	3.062	1.495
1815.05	3.062	1.500
1816.12	3.059	1.499
1817.18	3.057	1.501
1818.21	3.057	1.496
1819.25	3.055	1.494
1820.28	3.054	1.496
1821.31	3.053	1.499
1822.34	3.050	1.497
1823.37	3.049	1.493
1824.41	3.048	1.495
1825.44	3.053	1.494
1826.47	3.052	1.498
1827.50	3.052	1.497
1828.53	3.051	1.492
1829.57	3.048	1.495
1830.60	3.047	1.496
1831.63	3.046	1.495
1832.66	3.044	1.494
1833.73	3.042	1.495
1834.76	3.038	1.494
1835.79	3.036	1.493
1836.82	3.033	1.494
1837.85	3.031	1.490
1838.89	3.030	1.492
1839.92	3.029	1.489
1840.95	3.027	1.487
1841.98	3.025	1.492
1843.01	3.023	1.488
1844.05	3.023	1.490
1845.08	3.022	1.494
1846.11	3.021	1.494
1847.14	3.019	1.493
1848.17	3.017	1.490
1849.21	3.017	1.488
1850.24	3.014	1.488
1851.27	3.018	1.494
1852.30	3.018	1.486
1853.33	3.017	1.491
1854.37	3.017	1.488
1855.40	3.015	1.486
1856.43	3.014	1.494
1857.48	3.012	1.490
1858.51	3.012	1.485
1859.54	3.011	1.484
1860.57	3.008	1.487
1861.61	3.005	1.487
1862.64	3.002	1.488
1863.67	2.999	1.488
1864.70	2.996	1.484
1865.73	2.994	1.488
1866.77	2.994	1.482
1867.80	2.991	1.481
1868.86	2.989	1.484
1869.89	2.987	1.485
1870.93	2.986	1.485
1871.96	2.983	1.486
1872.99	2.982	1.484
1874.02	2.981	1.480
1875.05	2.979	1.481
1876.09	2.977	1.483
1877.12	2.976	1.484
1878.15	2.974	1.485
1879.18	2.979	1.480
1880.21	2.978	1.483
1881.25	2.978	1.482
1882.28	2.980	1.484
1883.31	2.975	1.482
1884.34	2.974	1.479
1885.37	2.972	1.481
1886.44	2.970	1.483
1887.50	2.970	1.481
1888.53	2.966	1.484
1889.57	2.966	1.481
1890.60	2.962	1.481
1891.63	2.961	1.479
1892.66	2.957	1.478
1893.69	2.955	1.480
1894.73	2.955	1.480
1895.76	2.953	1.480
1896.79	2.950	1.479
1897.82	2.949	1.478
1898.85	2.949	1.477
1899.89	2.945	1.479
1900.92	2.945	1.477
1901.95	2.944	1.481
1902.98	2.941	1.479
1904.04	2.942	1.481
1905.08	2.943	1.477
1906.11	2.943	1.479
1907.14	2.943	1.475
1908.17	2.943	1.471
1909.21	2.942	1.476
1910.24	2.940	1.476
1911.27	2.941	1.478
1912.30	2.939	1.477
1913.33	2.937	1.471
1914.37	2.935	1.476
1915.40	2.933	1.479
1916.43	2.928	1.473
1917.46	2.925	1.473
1918.49	2.923	1.471
1919.53	2.922	1.473
1920.56	2.919	1.478
1921.62	2.919	1.472
1922.65	2.917	1.476
1923.69	2.915	1.474
1924.72	2.913	1.466
1925.75	2.910	1.467
1926.78	2.907	1.469
1927.81	2.907	1.470
1928.85	2.907	1.469
1929.88	2.906	1.466
1930.91	2.904	1.469
1931.94	2.904	1.468
1932.97	2.906	1.467
1934.01	2.906	1.468
1935.04	2.906	1.468
1936.07	2.904	1.469
1937.10	2.903	1.469
1938.13	2.903	1.469
1939.20	2.902	1.467
1940.23	2.898	1.466
1941.26	2.898	1.466
1942.29	2.895	1.465
1943.33	2.893	1.467
1944.36	2.891	1.466
1945.39	2.888	1.465
1946.42	2.885	1.465
1947.45	2.882	1.467
1948.49	2.880	1.466
1949.52	2.877	1.466
1950.55	2.878	1.466
1951.58	2.875	1.465
1952.61	2.874	1.465
1953.65	2.872	1.465
1954.68	2.872	1.463
1955.74	2.870	1.466
1956.77	2.867	1.463
1957.80	2.869	1.465
1958.84	2.873	1.464
1959.87	2.873	1.463
1960.90	2.872	1.462
1961.93	2.872	1.464
1962.97	2.868	1.467
1964.00	2.868	1.468
1965.03	2.868	1.464
1966.06	2.865	1.461
1967.09	2.865	1.464
1968.13	2.860	1.466
1969.16	2.860	1.463
1970.19	2.858	1.463
1971.22	2.856	1.463
1972.25	2.854	1.464
1973.29	2.852	1.464
1974.35	2.851	1.462
1975.38	2.848	1.462
1976.41	2.846	1.462
1977.45	2.844	1.458
1978.48	2.842	1.460
1979.51	2.841	1.460
1980.54	2.840	1.463
1981.57	2.836	1.464
1982.61	2.836	1.460
1983.64	2.833	1.460
1984.67	2.838	1.460
1985.70	2.839	1.456
1986.73	2.839	1.459
1987.77	2.840	1.459
1988.80	2.832	1.460
1989.83	2.833	1.459
1990.86	2.833	1.455
1991.92	2.830	1.454
1992.96	2.830	1.459
1993.99	2.827	1.459
1995.02	2.825	1.457
1996.05	2.822	1.460
1997.09	2.820	1.462
1998.12	2.819	1.460
1999.15	2.816	1.453
2000.18	2.815	1.456
2001.21	2.814	1.456
2002.25	2.813	1.451
2003.28	2.811	1.454
2004.31	2.810	1.454
2005.34	2.808	1.453
2006.37	2.807	1.452
2007.41	2.805	1.452
2008.44	2.802	1.451
2009.50	2.801	1.451
2010.53	2.803	1.450
2011.57	2.806	1.451
2012.60	2.805	1.452
2013.63	2.805	1.450
2014.66	2.804	1.452
2015.69	2.800	1.451
2016.73	2.799	1.452
2017.76	2.800	1.452
2018.79	2.800	1.451
2019.82	2.798	1.451
2020.85	2.795	1.449
2021.89	2.793	1.450
2022.92	2.792	1.449
2023.95	2.790	1.451
2024.98	2.789	1.451
2026.01	2.785	1.450
2027.04	2.783	1.447
2028.08	2.784	1.448
2029.11	2.780	1.451
2030.14	2.780	1.450
2031.17	2.778	1.448
2032.21	2.777	1.449
2033.24	2.775	1.442
2034.27	2.774	1.449
2035.30	2.773	1.448
2036.33	2.771	1.448
2037.37	2.770	1.447
2038.40	2.775	1.444
2039.43	2.775	1.449
2040.46	2.774	1.448
2041.49	2.771	1.448
2042.53	2.766	1.445
2043.56	2.767	1.449
2044.59	2.766	1.446
2045.62	2.766	1.445
2046.65	2.764	1.444
2047.69	2.762	1.443
2048.72	2.759	1.443
2049.75	2.757	1.439
2050.78	2.755	1.443
2051.81	2.752	1.444
2052.85	2.753	1.443
2053.88	2.749	1.442
2054.91	2.746	1.447
2055.94	2.746	1.441
2056.97	2.744	1.443
2058.01	2.743	1.436
2059.04	2.741	1.443
2060.07	2.741	1.441
2061.10	2.739	1.443
2062.13	2.738	1.440
2063.17	2.736	1.439
2064.20	2.737	1.440
2065.23	2.744	1.439
2066.26	2.742	1.441
2067.29	2.742	1.440
2068.33	2.741	1.440
2069.36	2.736	1.438
2070.39	2.738	1.436
2071.42	2.736	1.437
2072.45	2.736	1.435
2073.49	2.732	1.443
2074.52	2.730	1.437
2075.55	2.727	1.437
2076.58	2.727	1.435
2077.61	2.724	1.438
2078.68	2.723	1.437
2079.71	2.720	1.437
2080.74	2.717	1.438
2081.77	2.717	1.435
2082.81	2.716	1.435
2083.84	2.715	1.435
2084.87	2.714	1.434
2085.90	2.714	1.436
2086.93	2.713	1.434
2087.97	2.713	1.434
2089.00	2.712	1.436
2090.03	2.712	1.436
2091.06	2.715	1.436
2092.09	2.719	1.434
2093.13	2.718	1.435
2094.16	2.720	1.434
2095.19	2.717	1.436
2096.25	2.718	1.435
2097.28	2.718	1.436
2098.32	2.715	1.432
2099.35	2.715	1.433
2100.38	2.716	1.433
2101.41	2.717	1.434
2102.45	2.721	1.434
2103.48	2.661	1.434
2104.51	2.812	1.425
2105.54	3.144	1.430
2106.57	3.247	1.429
2107.61	3.266	1.432
2108.64	3.041	1.433
2109.67	1.130	1.425
2110.70	0.560	1.432
2111.73	0.472	1.430
2112.77	-0.095	1.430
2113.83	-0.665	1.429
2114.86	-0.177	1.429
2115.89	-0.333	1.427
2116.93	-0.284	1.427
2117.96	0.260	1.429
2118.99	0.433	1.427
2120.02	0.466	1.429
2121.05	0.473	1.428
2122.09	-0.568	1.425
2123.12	0.508	1.425
2124.15	-0.773	1.421
2125.18	-0.198	1.427
2126.21	0.392	1.423
2127.25	0.204	1.421
2128.28	-0.432	1.423
2129.31	0.123	1.422
2130.34	0.210	1.423
2131.40	0.091	1.424
2132.44	-0.199	1.424
2133.47	-0.107	1.424
2134.50	-0.369	1.422
2135.53	-0.072	1.423
2136.57	0.167	1.423
2137.60	0.206	1.420
2138.63	0.210	1.424
2139.66	-0.029	1.421
2140.69	-0.179	1.423
2141.73	-0.097	1.422
2142.76	-0.085	1.423
2143.79	-0.082	1.422
2144.82	-0.082	1.423
2145.85	-0.077	1.421
2146.89	-0.071	1.422
2147.92	-0.072	1.421
2148.98	-0.073	1.422
2150.01	-0.075	1.423
2151.05	-0.077	1.422
2152.08	-0.076	1.421
2153.11	-0.077	1.424
2154.14	-0.079	1.420
2155.17	-0.080	1.422
2156.21	-0.084	1.420
2157.24	-0.084	1.421
2158.27	-0.087	1.424
2159.30	-0.089	1.422
2160.33	-0.091	1.421
2161.37	-0.094	1.421
2162.40	-0.095	1.421
2163.43	-0.098	1.421
2164.46	-0.099	1.422
2165.50	-0.101	1.421
2166.56	-0.102	1.422
2167.59	-0.103	1.421
2168.62	-0.103	1.422
2169.65	-0.105	1.422
2170.70	-0.108	1.421
2171.74	-0.109	1.419
2172.77	-0.102	1.414
2173.81	-0.105	1.421
2174.84	-0.105	1.420
2175.87	-0.104	1.420
2176.90	-0.110	1.419
2177.93	-0.109	1.421
2178.97	-0.110	1.420
2180.00	-0.111	1.418
2181.03	-0.114	1.421
2182.06	-0.118	1.419
2183.09	-0.120	1.415
2184.16	-0.122	1.418
2185.19	-0.125	1.415
2186.22	-0.127	1.418
2187.25	-0.131	1.420
2188.29	-0.133	1.421
2189.32	-0.134	1.417
2190.35	-0.136	1.416
2191.38	-0.139	1.413
2192.41	-0.139	1.413
2193.45	-0.141	1.417
2194.48	-0.143	1.414
2195.51	-0.145	1.417
2196.54	-0.145	1.417
2197.57	-0.147	1.411
2198.61	-0.141	1.416
2199.64	-0.139	1.414
2200.67	-0.142	1.411
2201.73	-0.140	1.415
2202.76	-0.146	1.414
2203.80	-0.147	1.414
2204.83	-0.148	1.415
2205.86	-0.149	1.409
2206.89	-0.151	1.409
2207.93	-0.152	1.412
2208.96	-0.155	1.411
2209.99	-0.158	1.411
2211.02	-0.160	1.413
2212.05	-0.161	1.411
2213.09	-0.163	1.412
2214.12	-0.164	1.409
2215.15	-0.167	1.413
2216.18	-0.169	1.414
2217.21	-0.172	1.411
2218.25	-0.173	1.407
2219.31	-0.175	1.407
2220.34	-0.177	1.407
2221.37	-0.179	1.412
2222.41	-0.179	1.410
2223.44	-0.180	1.411
2224.47	-0.179	1.412
2225.50	-0.173	1.407
2226.53	-0.177	1.407
2227.57	-0.176	1.407
2228.60	-0.179	1.407
2229.63	-0.181	1.410
2230.66	-0.180	1.408
2231.69	-0.181	1.407
2232.73	-0.183	1.408
2233.76	-0.184	1.408
2234.79	-0.185	1.406
2235.82	-0.184	1.407
2236.88	-0.186	1.404
2237.92	-0.188	1.405
2238.95	-0.191	1.406
2239.98	-0.191	1.407
2241.01	-0.193	1.406
2242.05	-0.194	1.406
2243.08	-0.196	1.405
2244.11	-0.198	1.409
2245.16	-0.201	1.407
2246.19	-0.202	1.408
2247.22	-0.203	1.405
2248.25	-0.205	1.402
2249.29	-0.206	1.402
2250.32	-0.207	1.406
2251.35	-0.148	1.407
2252.38	-0.143	1.409
2253.44	-0.142	1.407
2254.48	-0.142	1.402
2255.51	-0.148	1.403
2256.54	-0.145	1.404
2257.57	-0.128	1.404
2258.61	-0.112	1.406
2259.64	-0.118	1.403
2260.67	-0.120	1.404
2261.70	-0.123	1.402
2262.73	-0.126	1.406
2263.77	-0.129	1.404
2264.80	-0.187	1.406
2265.83	-0.224	1.403
2266.86	-0.226	1.400
2267.89	-0.229	1.400
2268.93	-0.229	1.402
2269.96	-0.233	1.401
2270.99	-0.233	1.402
2272.05	-0.234	1.396
2273.09	-0.235	1.398
2274.12	-0.235	1.401
2275.15	-0.237	1.400
2276.18	-0.238	1.398
2277.21	-0.234	1.398
2278.25	-0.230	1.396
2279.28	-0.231	1.395
2280.31	-0.231	1.398
2281.34	-0.230	1.396
2282.37	-0.229	1.394
2283.41	-0.236	1.393
2284.44	-0.237	1.393
2285.47	-0.237	1.396
2286.50	-0.240	1.399
2287.53	-0.242	1.392
2288.60	-0.245	1.395
2289.63	-0.248	1.394
2290.66	-0.250	1.392
2291.69	-0.253	1.394
2292.73	-0.254	1.394
2293.77	-0.257	1.396
2294.85	-0.258	1.393
2295.88	-0.259	1.393
2296.91	-0.260	1.392
2297.94	-0.264	1.395
2298.97	-0.264	1.393
2300.01	-0.267	1.393
2301.07	-0.265	1.392
2302.13	-0.268	1.392
2303.17	-0.270	1.394
2304.21	-0.270	1.394
2305.25	-0.272	1.390
2306.31	-0.274	1.392
2307.34	-0.274	1.392
2308.37	-0.277	1.393
2309.41	-0.277	1.391
2310.44	-0.271	1.394
2311.47	-0.269	1.393
2312.51	-0.273	1.390
2313.54	-0.269	1.389
2314.57	-0.276	1.393
2315.61	-0.278	1.389
2316.65	-0.278	1.393
2317.68	-0.280	1.389
2318.71	-0.280	1.387
2319.74	-0.282	1.393
2320.77	-0.284	1.389
2321.81	-0.287	1.387
2322.84	-0.287	1.387
2323.90	-0.290	1.388
2324.93	-0.293	1.392
2325.97	-0.294	1.391
2327.00	-0.294	1.388
2328.03	-0.295	1.389
2329.06	-0.297	1.389
2330.09	-0.298	1.388
2331.13	-0.298	1.384
2332.16	-0.299	1.387
2333.19	-0.302	1.386
2334.22	-0.301	1.385
2335.25	-0.303	1.387
2336.29	-0.305	1.388
2337.32	-0.296	1.387
2338.35	-0.296	1.386
2339.38	-0.298	1.380
2340.41	-0.295	1.381
2341.45	-0.303	1.383
2342.48	-0.303	1.385
2343.51	-0.304	1.389
2344.57	-0.308	1.386
2345.62	-0.309	1.386
2346.68	-0.311	1.384
2347.73	-0.312	1.379
2348.76	-0.314	1.382
2349.79	-0.317	1.378
2350.82	-0.318	1.382
2351.85	-0.318	1.381
2352.89	-0.320	1.379
2353.92	-0.322	1.383
2354.95	-0.323	1.381
2355.98	-0.325	1.377
2357.01	-0.327	1.381
2358.05	-0.328	1.381
2359.08	-0.329	1.383
2360.11	-0.330	1.380
2361.14	-0.331	1.378
2362.17	-0.333	1.376
2363.21	-0.327	1.380
2364.24	-0.322	1.379
2365.27	-0.324	1.377
2366.30	-0.325	1.377
2367.33	-0.324	1.376
2368.37	-0.332	1.378
2369.40	-0.332	1.376
2370.43	-0.333	1.376
2371.46	-0.334	1.383
2372.49	-0.336	1.378
2373.53	-0.336	1.379
2374.56	-0.338	1.377
2375.59	-0.340	1.378
2376.65	-0.339	1.373
2377.68	-0.340	1.382
2378.72	-0.341	1.378
2379.75	-0.343	1.376
2380.78	-0.344	1.372
2381.81	-0.347	1.369
2382.85	-0.701	1.376
2383.88	-0.953	1.372
2384.92	-0.242	1.372
2385.95	-2.459	1.371
2386.99	-1.178	1.375
2388.02	-2.718	1.372
2389.05	-3.087	1.373
2390.09	-3.179	1.371
2391.12	-5.204	1.370
2392.15	-5.814	1.371
2393.21	-4.861	1.365
2394.28	-2.729	1.369
2395.31	-2.811	1.368
2396.34	-0.474	1.368
2397.37	1.166	1.366
2398.41	2.189	1.367
2399.44	2.076	1.370
2400.47	1.470	1.372
2401.50	1.817	1.371
2402.53	1.870	1.366
2403.57	1.880	1.367
2404.60	1.880	1.366
2405.63	1.879	1.369
2406.66	1.879	1.374
2407.69	1.877	1.367
2408.73	1.876	1.366
2409.76	1.873	1.370
2410.79	1.872	1.369
2411.82	1.870	1.369
2412.85	1.871	1.369
2413.89	1.871	1.365
2414.92	1.871	1.367
2415.95	1.870	1.365
2416.98	1.869	1.366
2418.01	1.868	1.370
2419.05	1.866	1.368
2420.08	1.875	1.368
2421.11	1.875	1.366
2422.14	1.874	1.366
2423.17	1.874	1.366
2424.21	1.868	1.364
2425.24	1.868	1.366
2426.27	1.866	1.363
2427.30	1.865	1.363
2428.33	1.863	1.363
2429.36	1.860	1.362
2430.40	1.858	1.365
2431.43	1.854	1.363
2432.46	1.853	1.362
2433.49	1.853	1.364
2434.53	1.851	1.362
2435.56	1.851	1.364
2436.59	1.851	1.364
2437.62	1.849	1.361
2438.65	1.849	1.362
2439.69	1.848	1.364
2440.72	1.846	1.362
2441.75	1.847	1.365
2442.78	1.845	1.364
2443.81	1.844	1.362
2444.85	1.842	1.363
2445.91	1.845	1.361
2446.97	1.852	1.363
2448.01	1.851	1.363
2449.04	1.850	1.363
2450.07	1.849	1.360
2451.10	1.847	1.361
2452.13	1.846	1.360
2453.17	1.846	1.362
2454.20	1.845	1.361
2455.23	1.841	1.360
2456.26	1.839	1.362
2457.29	1.838	1.364
2458.33	1.835	1.363
2459.36	1.833	1.360
2460.39	1.831	1.362
2461.42	1.830	1.357
2462.45	1.829	1.360
2463.52	1.827	1.360
2464.58	1.826	1.364
2465.61	1.824	1.356
2466.65	1.823	1.354
2467.68	1.821	1.361
2468.71	1.821	1.359
2469.74	1.819	1.362
2470.77	1.818	1.355
2471.81	1.817	1.359
2472.84	1.821	1.355
2473.87	1.830	1.359
2474.90	1.829	1.359
2475.93	1.828	1.352
2476.97	1.821	1.358
2478.00	1.819	1.358
2479.03	1.820	1.355
2480.06	1.819	1.350
2481.12	1.816	1.354
2482.19	1.814	1.351
2483.22	1.813	1.355
2484.25	1.811	1.351
2485.29	1.810	1.352
2486.32	1.809	1.355
2487.35	1.808	1.352
2488.38	1.806	1.349
2489.41	1.806	1.349
2490.45	1.805	1.348
2491.48	1.803	1.354
2492.51	1.802	1.351
2493.54	1.801	1.353
2494.57	1.800	1.349
2495.61	1.797	1.353
2496.64	1.796	1.349
2497.67	1.795	1.351
2498.73	1.794	1.350
2499.80	1.803	1.349
2500.83	1.806	1.350
2501.86	1.805	1.349
2502.89	1.805	1.350
2503.93	1.796	1.350
2504.96	1.796	1.353
2505.99	1.795	1.349
2507.02	1.792	1.347
2508.05	1.790	1.347
2509.09	1.787	1.349
2510.12	1.786	1.348
2511.15	1.786	1.348
2512.18	1.781	1.349
2513.21	1.781	1.347
2514.25	1.779	1.348
2515.28	1.779	1.349
2516.34	1.777	1.348
2517.37	1.776	1.348
2518.41	1.774	1.349
2519.44	1.772	1.349
2520.47	1.772	1.345
2521.50	1.771	1.349
2522.53	1.772	1.348
2523.57	1.769	1.347
2524.60	1.770	1.347
2525.63	1.769	1.347
2526.66	1.778	1.344
2527.69	1.778	1.344
2528.73	1.778	1.349
2529.76	1.779	1.346
2530.79	1.770	1.347
2531.82	1.773	1.348
2532.85	1.773	1.342
2533.92	1.772	1.345
2534.95	1.771	1.343
2535.98	1.769	1.344
2537.01	1.765	1.347
2538.05	1.765	1.343
2539.08	1.761	1.344
2540.11	1.759	1.347
2541.14	1.759	1.344
2542.17	1.757	1.347
2543.21	1.754	1.342
2544.24	1.754	1.344
2545.27	1.751	1.345
2546.30	1.751	1.343
2547.33	1.750	1.340
2548.37	1.747	1.344
2549.40	1.746	1.345
2550.43	1.746	1.342
2551.49	1.745	1.346
2552.52	1.746	1.338
2553.56	1.757	1.339
2554.59	1.756	1.342
2555.62	1.757	1.343
2556.65	1.753	1.342
2557.69	1.750	1.338
2558.72	1.751	1.336
2559.75	1.750	1.339
2560.78	1.747	1.343
2561.81	1.745	1.339
2562.85	1.741	1.341
2563.88	1.739	1.341
2564.91	1.736	1.338
2565.94	1.735	1.337
2566.97	1.735	1.337
2568.01	1.733	1.337
2569.07	1.731	1.337
2570.10	1.730	1.340
2571.13	1.730	1.335
2572.17	1.727	1.337
2573.20	1.724	1.338
2574.23	1.724	1.336
2575.26	1.724	1.335
2576.29	1.721	1.333
2577.33	1.720	1.335
2578.36	1.717	1.338
2579.39	1.718	1.332
2580.42	1.727	1.336
2581.45	1.728	1.333
2582.49	1.727	1.335
2583.52	1.727	1.338
2584.55	1.720	1.333
2585.58	1.721	1.334
2586.65	1.721	1.336
2587.68	1.717	1.335
2588.71	1.716	1.336
2589.74	1.715	1.329
2590.77	1.713	1.332
2591.81	1.711	1.332
2592.84	1.710	1.334
2593.87	1.708	1.332
2594.90	1.708	1.335
2595.93	1.704	1.332
2596.97	1.703	1.332
2598.00	1.702	1.332
2599.03	1.701	1.333
2600.06	1.699	1.332
2601.09	1.696	1.334
2602.13	1.697	1.331
2603.19	1.695	1.333
2604.22	1.694	1.332
2605.25	1.693	1.330
2606.29	1.697	1.331
2607.32	1.704	1.329
2608.35	1.702	1.331
2609.38	1.703	1.327
2610.41	1.700	1.327
2611.45	1.698	1.329
2612.48	1.698	1.330
2613.51	1.694	1.330
2614.54	1.694	1.328
2615.57	1.693	1.330
2616.61	1.690	1.328
2617.64	1.689	1.328
2618.67	1.689	1.326
2619.70	1.687	1.327
2620.73	1.686	1.328
2621.80	1.684	1.328
2622.83	1.683	1.325
2623.86	1.681	1.325
2624.89	1.681	1.327
2625.93	1.678	1.328
2626.96	1.677	1.328
2627.99	1.676	1.324
2629.02	1.678	1.322
2630.05	1.674	1.322
2631.09	1.674	1.327
2632.12	1.672	1.322
2633.15	1.676	1.326
2634.18	1.685	1.323
2635.21	1.684	1.327
2636.25	1.683	1.324
2637.28	1.679	1.319
2638.31	1.676	1.323
2639.34	1.678	1.326
2640.37	1.675	1.322
2641.41	1.674	1.321
2642.44	1.671	1.322
2643.47	1.670	1.322
2644.50	1.666	1.322
2645.53	1.667	1.322
2646.57	1.661	1.319
2647.60	1.661	1.320
2648.63	1.659	1.320
2649.66	1.658	1.319
2650.69	1.658	1.320
2651.73	1.656	1.322
2652.76	1.656	1.320
2653.79	1.653	1.320
2654.82	1.652	1.320
2655.85	1.653	1.322
2656.92	1.650	1.322
2657.95	1.649	1.321
2658.98	1.648	1.320
2660.01	1.652	1.321
2661.05	1.659	1.317
2662.08	1.659	1.319
2663.11	1.659	1.317
2664.14	1.656	1.321
2665.17	1.652	1.317
2666.21	1.652	1.318
2667.24	1.652	1.317
2668.27	1.649	1.318
2669.30	1.648	1.319
2670.33	1.647	1.319
2671.37	1.644	1.317
2672.40	1.642	1.316
2673.43	1.640	1.317
2674.49	1.638	1.315
2675.53	1.635	1.318
2676.56	1.632	1.319
2677.59	1.632	1.315
2678.62	1.631	1.316
2679.65	1.629	1.317
2680.69	1.627	1.317
2681.72	1.627	1.317
2682.75	1.626	1.317
2683.78	1.623	1.312
2684.81	1.623	1.311
2685.85	1.620	1.311
2686.88	1.624	1.312
2687.91	1.634	1.313
2688.94	1.633	1.311
2689.97	1.634	1.313
2691.04	1.631	1.314
2692.07	1.627	1.317
2693.10	1.626	1.313
2694.13	1.626	1.310
2695.17	1.624	1.311
2696.20	1.621	1.312
2697.23	1.619	1.311
2698.26	1.617	1.311
2699.29	1.617	1.312
2700.33	1.614	1.311
2701.36	1.615	1.313
2702.39	1.613	1.310
2703.42	1.612	1.307
2704.45	1.609	1.307
2705.49	1.612	1.311
2706.52	1.607	1.310
2707.55	1.605	1.309
2708.61	1.605	1.310
2709.64	1.604	1.308
2710.68	1.602	1.313
2711.71	1.600	1.310
2712.74	1.600	1.308
2713.77	1.607	1.307
2714.81	1.611	1.305
2715.84	1.611	1.305
2716.87	1.610	1.309
2717.90	1.606	1.310
2718.93	1.605	1.307
2719.97	1.604	1.306
2721.00	1.602	1.303
2722.03	1.601	1.306
2723.06	1.599	1.305
2724.09	1.596	1.306
2725.13	1.595	1.307
2726.19	1.593	1.311
2727.22	1.591	1.307
2728.25	1.590	1.307
2729.29	1.588	1.306
2730.32	1.586	1.304
2731.35	1.584	1.303
2732.38	1.583	1.306
2733.41	1.581	1.305
2734.45	1.580	1.306
2735.48	1.579	1.306
2736.51	1.577	1.305
2737.54	1.577	1.306
2738.57	1.576	1.305
2739.61	1.573	1.308
2740.64	1.581	1.306
2741.67	1.587	1.305
2742.70	1.586	1.304
2743.76	1.587	1.307
2744.80	1.582	1.304
2745.83	1.581	1.305
2746.86	1.579	1.304
2747.89	1.578	1.305
2748.93	1.576	1.305
2749.96	1.572	1.304
2750.99	1.571	1.303
2752.02	1.570	1.306
2753.05	1.569	1.304
2754.09	1.568	1.306
2755.12	1.566	1.303
2756.15	1.564	1.302
2757.18	1.562	1.303
2758.21	1.560	1.306
2759.25	1.561	1.301
2760.28	1.560	1.302
2761.34	1.557	1.304
2762.37	1.557	1.304
2763.41	1.557	1.304
2764.44	1.553	1.302
2765.47	1.553	1.302
2766.50	1.552	1.302
2767.53	1.559	1.303
2768.57	1.566	1.297
2769.60	1.565	1.303
2770.63	1.564	1.302
2771.66	1.557	1.306
2772.69	1.556	1.302
2773.73	1.554	1.302
2774.76	1.553	1.305
2775.79	1.552	1.302
2776.82	1.548	1.301
2777.85	1.546	1.300
2778.92	1.545	1.297
2779.98	1.543	1.301
2781.01	1.542	1.301
2782.05	1.539	1.299
2783.08	1.537	1.298
2784.11	1.538	1.301
2785.14	1.539	1.298
2786.17	1.539	1.298
2787.21	1.537	1.295
2788.24	1.536	1.292
2789.27	1.535	1.300
2790.30	1.534	1.299
2791.33	1.534	1.297
2792.37	1.533	1.296
2793.40	1.533	1.298
2794.43	1.538	1.293
2795.46	1.541	1.295
2796.53	1.539	1.295
2797.56	1.540	1.292
2798.59	1.534	1.295
2799.62	1.536	1.295
2800.65	1.535	1.293
2801.69	1.535	1.293
2802.72	1.532	1.293
2803.75	1.531	1.292
2804.78	1.530	1.292
2805.81	1.526	1.293
2806.85	1.527	1.296
2807.88	1.524	1.291
2808.91	1.521	1.290
2809.94	1.521	1.291
2810.97	1.520	1.290
2812.01	1.518	1.290
2813.04	1.516	1.292
2814.10	1.517	1.291
2815.13	1.521	1.292
2816.17	1.516	1.290
2817.20	1.513	1.291
2818.23	1.511	1.290
2819.26	1.509	1.295
2820.29	1.508	1.292
2821.33	1.518	1.288
2822.36	1.523	1.291
2823.39	1.522	1.289
2824.42	1.522	1.293
2825.45	1.517	1.291
2826.49	1.515	1.293
2827.52	1.513	1.291
2828.55	1.512	1.290
2829.58	1.510	1.290
2830.61	1.507	1.290
2831.68	1.507	1.291
2832.71	1.505	1.289
2833.74	1.504	1.291
2834.77	1.500	1.289
2835.81	1.499	1.290
2836.84	1.496	1.290
2837.87	1.496	1.290
2838.90	1.494	1.286
2839.93	1.494	1.288
2840.97	1.492	1.289
2842.00	1.491	1.291
2843.03	1.491	1.291
2844.06	1.490	1.289
2845.09	1.490	1.290
2846.13	1.489	1.292
2847.16	1.486	1.290
2848.19	1.485	1.289
2849.25	1.493	1.287
2850.29	1.497	1.285
2851.32	1.495	1.287
2852.35	1.497	1.287
2853.38	1.492	1.286
2854.41	1.492	1.287
2855.45	1.491	1.287
2856.48	1.488	1.288
2857.51	1.485	1.289
2858.54	1.485	1.289
2859.57	1.482	1.289
2860.61	1.481	1.289
2861.64	1.479	1.286
2862.67	1.477	1.286
2863.70	1.475	1.288
2864.73	1.473	1.286
2865.77	1.473	1.285
2866.80	1.470	1.286
2867.83	1.470	1.284
2868.86	1.468	1.287
2869.89	1.467	1.288
2870.93	1.466	1.283
2871.96	1.465	1.284
2872.99	1.463	1.284
2874.02	1.464	1.287
2875.05	1.463	1.284
2876.09	1.472	1.281
2877.12	1.477	1.283
2878.15	1.476	1.283
2879.18	1.476	1.286
2880.21	1.471	1.283
2881.25	1.466	1.284
2882.28	1.470	1.285
2883.31	1.465	1.283
2884.37	1.464	1.285
2885.41	1.462	1.281
2886.44	1.461	1.282
2887.47	1.460	1.281
2888.50	1.458	1.283
2889.53	1.458	1.279
2890.57	1.457	1.284
2891.60	1.455	1.283
2892.63	1.454	1.282
2893.66	1.453	1.279
2894.69	1.453	1.277
2895.73	1.450	1.281
2896.76	1.449	1.276
2897.79	1.448	1.278
2898.82	1.448	1.277
2899.85	1.446	1.277
2900.89	1.445	1.279
2901.95	1.445	1.278
2902.98	1.445	1.276
2904.01	1.449	1.278
2905.05	1.457	1.275
2906.08	1.458	1.277
2907.11	1.457	1.277
2908.14	1.452	1.277
2909.17	1.451	1.279
2910.21	1.452	1.279
2911.24	1.448	1.278
2912.27	1.448	1.274
2913.30	1.445	1.274
2914.33	1.444	1.277
2915.37	1.441	1.277
2916.40	1.438	1.275
2917.43	1.437	1.275
2918.49	1.433	1.275
2919.52	1.432	1.277
2920.56	1.430	1.275
2921.59	1.430	1.274
2922.62	1.430	1.274
2923.65	1.427	1.275
2924.69	1.425	1.276
2925.72	1.425	1.275
2926.75	1.425	1.275
2927.78	1.424	1.274
2928.81	1.422	1.273
2929.85	1.422	1.276
2930.88	1.427	1.275
2931.91	1.436	1.273
2932.94	1.435	1.274
2933.97	1.437	1.273
2935.01	1.435	1.273
2936.07	1.426	1.274
2937.10	1.430	1.273
2938.13	1.427	1.273
2939.17	1.423	1.272
2940.20	1.422	1.272
2941.23	1.421	1.271
2942.26	1.419	1.272
2943.29	1.417	1.271
2944.33	1.417	1.273
2945.36	1.413	1.271
2946.39	1.414	1.273
2947.42	1.412	1.273
2948.45	1.411	1.270
2949.49	1.409	1.272
2950.52	1.407	1.270
2951.55	1.406	1.270
2952.58	1.406	1.271
2953.65	1.404	1.271
2954.68	1.403	1.273
2955.71	1.402	1.271
2956.74	1.399	1.270
2957.77	1.400	1.273
2958.81	1.402	1.267
2959.84	1.411	1.272
2960.87	1.411	1.270
2961.90	1.411	1.264
2962.93	1.408	1.261
2963.97	1.402	1.268
2965.00	1.407	1.266
2966.03	1.404	1.266
2967.06	1.402	1.265
2968.09	1.400	1.268
2969.13	1.398	1.263
2970.16	1.396	1.266
2971.22	1.394	1.268
2972.25	1.392	1.264
2973.29	1.390	1.266
2974.32	1.388	1.265
2975.35	1.387	1.261
2976.38	1.386	1.264
2977.41	1.386	1.263
2978.45	1.385	1.263
2979.48	1.383	1.264
2980.51	1.383	1.263
2981.54	1.381	1.265
2982.57	1.381	1.262
2983.61	1.381	1.261
2984.64	1.380	1.266
2985.67	1.381	1.261
2986.70	1.391	1.263
2987.73	1.389	1.260
2988.80	1.388	1.260
2989.83	1.387	1.263
2990.86	1.381	1.258
2991.89	1.385	1.259
2992.93	1.382	1.260
2993.96	1.380	1.264
2994.99	1.380	1.261
2996.02	1.378	1.260
2997.05	1.376	1.259
2998.09	1.374	1.258
2999.12	1.373	1.265
3000.15	1.371	1.261
3001.18	1.371	1.262
3002.21	1.370	1.259
3003.25	1.376	1.260
3004.28	1.368	1.259
3005.31	1.366	1.259
3006.37	1.366	1.261
3007.41	1.365	1.256
3008.44	1.364	1.253
3009.47	1.364	1.258
3010.50	1.363	1.257
3011.53	1.363	1.260
3012.57	1.365	1.256
3013.60	1.375	1.253
3014.63	1.375	1.259
3015.66	1.376	1.257
3016.69	1.370	1.257
3017.73	1.366	1.257
3018.76	1.375	1.251
3019.79	1.368	1.257
3020.82	1.365	1.256
3021.85	1.362	1.255
3022.89	1.360	1.257
3023.95	1.358	1.255
3024.98	1.356	1.257
3026.01	1.353	1.258
3027.05	1.351	1.255
3028.08	1.349	1.254
3029.11	1.349	1.251
3030.14	1.347	1.253
3031.17	1.346	1.254
3032.21	1.346	1.254
3033.24	1.345	1.252
3034.27	1.343	1.255
3035.30	1.345	1.252
3036.33	1.342	1.252
3037.37	1.341	1.251
3038.40	1.341	1.254
3039.43	1.346	1.253
3040.46	1.356	1.252
3041.52	1.356	1.252
3042.56	1.356	1.254
3043.59	1.352	1.252
3044.62	1.347	1.250
3045.65	1.352	1.250
3046.69	1.345	1.249
3047.72	1.344	1.248
3048.75	1.341	1.252
3049.78	1.339	1.254
3050.81	1.338	1.245
3051.85	1.335	1.247
3052.88	1.335	1.253
3053.91	1.334	1.252
3054.94	1.332	1.248
3055.97	1.331	1.248
3057.01	1.330	1.247
3058.07	1.328	1.248
3059.13	1.328	1.246
3060.17	1.326	1.248
3061.20	1.324	1.249
3062.23	1.325	1.248
3063.26	1.322	1.246
3064.29	1.323	1.247
3065.33	1.322	1.249
3066.37	1.324	1.251
3067.40	1.336	1.249
3068.43	1.337	1.247
3069.46	1.336	1.247
3070.49	1.334	1.248
3071.53	1.324	1.249
3072.58	1.333	1.250
3073.64	1.327	1.250
3074.69	1.324	1.248
3075.75	1.322	1.247
3076.81	1.320	1.248
3077.87	1.318	1.250
3078.93	1.315	1.248
3079.98	1.313	1.245
3081.04	1.313	1.249
3082.09	1.310	1.246
3083.15	1.310	1.247
3084.18	1.309	1.245
3085.21	1.309	1.247
3086.27	1.307	1.244
3087.30	1.307	1.248
3088.36	1.306	1.246
3089.41	1.305	1.247
3090.47	1.303	1.244
3091.53	1.303	1.245
3092.56	1.302	1.247
3093.61	1.312	1.249
3094.68	1.317	1.242
3095.73	1.315	1.247
3096.77	1.316	1.246
3097.81	1.308	1.245
3098.86	1.310	1.246
3099.92	1.310	1.243
3100.97	1.305	1.243
3102.03	1.305	1.243
3103.09	1.302	1.246
3104.14	1.301	1.241
3105.20	1.299	1.245
3106.25	1.299	1.248
3107.31	1.295	1.238
3108.37	1.296	1.243
3109.42	1.294	1.241
3110.48	1.292	1.244
3111.53	1.290	1.242
3112.59	1.290	1.240
3113.65	1.288	1.245
3114.70	1.287	1.241
3115.76	1.286	1.243
3116.81	1.286	1.240
3117.87	1.283	1.241
3118.93	1.284	1.242
3119.98	1.287	1.241
3121.04	1.298	1.239
3122.09	1.298	1.246
3123.15	1.297	1.241
3124.21	1.298	1.234
3125.26	1.286	1.238
3126.32	1.295	1.237
3127.37	1.294	1.237
3128.43	1.288	1.243
3129.48	1.286	1.238
3130.54	1.285	1.242
3131.60	1.283	1.241
3132.65	1.281	1.236
3133.71	1.279	1.241
3134.77	1.278	1.238
3135.82	1.276	1.236
3136.88	1.279	1.234
3137.93	1.282	1.237
3138.99	1.272	1.241
3140.05	1.281	1.241
3141.10	1.274	1.238
3142.16	1.270	1.235
3143.21	1.270	1.233
3144.27	1.270	1.234
3145.32	1.267	1.232
3146.38	1.266	1.236
3147.44	1.265	1.236
3148.49	1.276	1.231
3149.55	1.280	1.232
3150.61	1.279	1.234
3151.66	1.280	1.235
3152.72	1.269	1.232
3153.77	1.273	1.233
3154.83	1.274	1.233
3155.89	1.268	1.233
3156.94	1.266	1.230
3158.00	1.263	1.230
3159.05	1.262	1.236
3160.11	1.259	1.234
3161.17	1.258	1.230
3162.22	1.256	1.234
3163.28	1.254	1.232
3164.33	1.254	1.232
3165.39	1.253	1.234
3166.45	1.252	1.234
3167.50	1.251	1.232
3168.56	1.249	1.231
3169.61	1.249	1.231
3170.67	1.250	1.233
3171.73	1.246	1.230
3172.78	1.246	1.231
3173.84	1.245	1.231
3174.89	1.250	1.231
3175.95	1.260	1.230
3177.01	1.259	1.232
3178.06	1.259	1.232
3179.12	1.258	1.231
3180.17	1.250	1.232
3181.23	1.257	1.232
3182.29	1.253	1.231
3183.34	1.249	1.232
3184.40	1.248	1.234
3185.45	1.243	1.229
3186.51	1.242	1.231
3187.57	1.240	1.230
3188.62	1.238	1.230
3189.68	1.237	1.229
3190.73	1.235	1.230
3191.79	1.235	1.229
3192.85	1.236	1.230
3193.90	1.234	1.232
3194.96	1.233	1.232
3196.01	1.233	1.232
3197.07	1.234	1.233
3198.13	1.232	1.228
3199.18	1.230	1.229
3200.24	1.230	1.231
3201.29	1.230	1.230
3202.35	1.228	1.229
3203.41	1.244	1.225
3204.46	1.245	1.230
3205.50	1.245	1.230
3206.56	1.246	1.230
3207.61	1.234	1.228
3208.67	1.241	1.232
3209.73	1.245	1.230
3210.78	1.238	1.227
3211.84	1.233	1.227
3212.89	1.236	1.227
3213.95	1.230	1.230
3215.01	1.228	1.231
3216.06	1.227	1.224
3217.12	1.227	1.230
3218.17	1.226	1.229
3219.23	1.225	1.229
3220.29	1.226	1.228
3221.34	1.226	1.230
3222.40	1.229	1.228
3223.45	1.228	1.227
3224.51	1.223	1.227
3225.57	1.228	1.226
3226.62	1.226	1.228
3227.68	1.223	1.227
3228.73	1.222	1.226
3229.79	1.226	1.223
3230.85	1.229	1.226
3231.90	1.228	1.226
3232.96	1.228	1.227
3234.01	1.225	1.225
3235.07	1.225	1.230
3236.13	1.227	1.224
3237.18	1.225	1.227
3238.24	1.224	1.220
3239.29	1.224	1.220
3240.35	1.222	1.226
3241.41	1.219	1.229
3242.46	1.219	1.221
3243.52	1.217	1.218
3244.57	1.213	1.227
3245.63	1.213	1.220
3246.69	1.220	1.222
3247.74	1.212	1.220
3248.80	1.214	1.223
3249.85	1.218	1.222
3250.91	1.211	1.219
3251.97	1.212	1.222
3253.02	1.209	1.221
3254.08	1.208	1.219
3255.13	1.211	1.221
3256.19	1.207	1.222
3257.25	1.220	1.220
3258.30	1.221	1.220
3259.36	1.219	1.219
3260.41	1.216	1.218
3261.47	1.206	1.221
3262.53	1.216	1.222
3263.58	1.212	1.218
3264.64	1.205	1.215
3265.69	1.210	1.217
3266.75	1.201	1.219
3267.81	1.205	1.222
3268.86	1.198	1.215
3269.92	1.200	1.218
3270.97	1.199	1.220
3272.03	1.193	1.216
3273.09	1.200	1.218
3274.14	1.191	1.216
3275.20	1.196	1.218
3276.25	1.189	1.218
3277.31	1.193	1.217
3278.37	1.194	1.218
3279.42	1.190	1.220
3280.48	1.190	1.218
3281.53	1.190	1.216
3282.59	1.185	1.217
3283.65	1.198	1.217
3284.70	1.199	1.216
3285.76	1.199	1.217
3286.81	1.200	1.215
3287.87	1.188	1.212
3288.93	1.195	1.215
3289.98	1.196	1.217
3291.04	1.190	1.215
3292.09	1.191	1.218
3293.15	1.187	1.218
3294.21	1.188	1.217
3295.26	1.184	1.214
3296.32	1.186	1.217
3297.37	1.184	1.215
3298.43	1.181	1.219
3299.49	1.183	1.218
3300.54	1.183	1.215
3301.60	1.192	1.217
3302.65	1.183	1.213
3303.71	1.191	1.216
3304.77	1.189	1.213
3305.82	1.183	1.214
3306.88	1.186	1.210
3307.93	1.181	1.216
3308.99	1.186	1.217
3310.05	1.189	1.215
3311.10	1.194	1.212
3312.16	1.194	1.211
3313.21	1.195	1.216
3314.27	1.188	1.214
3315.33	1.188	1.217
3316.38	1.192	1.216
3317.44	1.187	1.214
3318.49	1.189	1.215
3319.55	1.181	1.215
3320.61	1.185	1.214
3321.66	1.180	1.211
3322.72	1.182	1.214
3323.77	1.176	1.214
3324.83	1.179	1.214
3325.89	1.174	1.211
3326.94	1.175	1.214
3328.00	1.178	1.210
3329.05	1.172	1.210
3330.11	1.172	1.211
3331.17	1.170	1.206
3332.22	1.167	1.210
3333.28	1.168	1.210
3334.33	1.167	1.210
3335.39	1.166	1.208
3336.45	1.162	1.208
3337.50	1.179	1.205
3338.56	1.177	1.209
3339.61	1.178	1.207
3340.67	1.176	1.205
3341.73	1.170	1.209
3342.78	1.167	1.207
3343.84	1.169	1.206
3344.89	1.166	1.209
3345.95	1.164	1.207
3347.01	1.162	1.211
3348.06	1.162	1.206
3349.12	1.155	1.208
3350.17	1.163	1.206
3351.23	1.159	1.208
3352.29	1.154	1.205
3353.34	1.156	1.205
3354.40	1.149	1.205
3355.45	1.154	1.203
3356.51	1.149	1.206
3357.57	1.154	1.203
3358.62	1.147	1.207
3359.68	1.154	1.204
3360.73	1.152	1.204
3361.79	1.147	1.203
3362.85	1.151	1.205
3363.90	1.155	1.205
3364.96	1.158	1.203
3366.01	1.158	1.203
3367.07	1.157	1.205
3368.13	1.151	1.207
3369.18	1.152	1.206
3370.24	1.157	1.203
3371.29	1.153	1.202
3372.35	1.151	1.203
3373.40	1.151	1.202
3374.46	1.150	1.205
3375.52	1.146	1.202
3376.57	1.148	1.203
3377.63	1.141	1.203
3378.69	1.145	1.204
3379.74	1.146	1.203
3380.80	1.144	1.204
3381.85	1.141	1.203
3382.91	1.140	1.205
3383.97	1.141	1.203
3385.02	1.137	1.203
3386.08	1.138	1.204
3387.13	1.134	1.199
3388.19	1.136	1.203
3389.25	1.139	1.202
3390.30	1.133	1.201
3391.36	1.143	1.200
3392.41	1.144	1.200
3393.47	1.144	1.200
3394.53	1.143	1.200
3395.58	1.131	1.201
3396.64	1.140	1.202
3397.69	1.141	1.200
3398.75	1.135	1.200
3399.81	1.137	1.202
3400.86	1.132	1.202
3401.92	1.135	1.200
3402.97	1.128	1.199
3404.03	1.131	1.200
3405.09	1.122	1.192
3406.14	1.132	1.197
3407.20	1.129	1.202
3408.25	1.122	1.200
3409.31	1.126	1.200
3410.37	1.121	1.199
3411.42	1.122	1.202
3412.48	1.121	1.198
3413.53	1.120	1.201
3414.59	1.115	1.199
3415.65	1.126	1.201
3416.70	1.120	1.200
3417.76	1.126	1.197
3418.81	1.129	1.195
3419.87	1.130	1.199
3420.93	1.131	1.200
3421.98	1.120	1.197
3423.04	1.124	1.198
3424.09	1.129	1.195
3425.15	1.126	1.197
3426.20	1.122	1.202
3427.26	1.124	1.200
3428.32	1.119	1.191
3429.37	1.119	1.195
3430.43	1.117	1.196
3431.49	1.114	1.193
3432.54	1.112	1.194
3433.60	1.119	1.193
3434.65	1.113	1.193
3435.71	1.111	1.194
3436.77	1.112	1.194
3437.82	1.111	1.197
3438.88	1.111	1.189
3439.93	1.111	1.191
3440.99	1.108	1.191
3442.05	1.107	1.192
3443.10	1.114	1.194
3444.16	1.113	1.195
3445.21	1.118	1.190
3446.27	1.117	1.190
3447.33	1.119	1.190
3448.38	1.114	1.195
3449.44	1.106	1.193
3450.49	1.117	1.191
3451.55	1.114	1.196
3452.61	1.110	1.191
3453.66	1.107	1.189
3454.72	1.108	1.190
3455.77	1.104	1.194
3456.83	1.104	1.198
3457.89	1.097	1.192
3458.94	1.106	1.187
3460.00	1.103	1.195
3461.05	1.100	1.190
3462.11	1.098	1.190
3463.17	1.098	1.190
3464.22	1.101	1.189
3465.28	1.090	1.189
3466.33	1.098	1.187
3467.39	1.097	1.189
3468.45	1.094	1.190
3469.50	1.093	1.187
3470.56	1.090	1.187
3471.61	1.102	1.187
3472.67	1.100	1.189
3473.73	1.101	1.187
3474.78	1.098	1.185
3475.84	1.090	1.187
3476.89	1.096	1.190
3477.95	1.097	1.189
3479.00	1.093	1.188
3480.06	1.092	1.187
3481.12	1.088	1.189
3482.17	1.088	1.191
3483.23	1.092	1.187
3484.29	1.088	1.186
3485.34	1.084	1.187
3486.40	1.085	1.187
3487.45	1.085	1.188
3488.51	1.081	1.186
3489.57	1.079	1.187
3490.62	1.085	1.187
3491.68	1.083	1.184
3492.73	1.078	1.186
3493.79	1.080	1.186
3494.85	1.076	1.186
3495.90	1.076	1.185
3496.96	1.072	1.186
3498.01	1.087	1.188
3499.07	1.090	1.187
3500.13	1.088	1.186
3501.18	1.089	1.187
3502.24	1.084	1.186
3503.29	1.081	1.187
3504.35	1.080	1.186
3505.41	1.075	1.187
3506.46	1.078	1.187
3507.52	1.081	1.186
3508.57	1.077	1.187
3509.63	1.074	1.186
3510.69	1.074	1.186
3511.74	1.074	1.187
3512.80	1.073	1.188
3513.85	1.070	1.186
3514.91	1.075	1.187
3515.97	1.072	1.187
3517.02	1.068	1.188
3518.08	1.069	1.186
3519.13	1.067	1.187
3520.19	1.065	1.185
3521.25	1.064	1.186
3522.30	1.069	1.185
3523.36	1.067	1.187
3524.41	1.067	1.188
3525.47	1.072	1.183
3526.53	1.071	1.185
3527.58	1.072	1.184
3528.64	1.070	1.186
3529.69	1.064	1.184
3530.75	1.067	1.186
3531.81	1.070	1.185
3532.86	1.068	1.186
3533.92	1.067	1.186
3534.97	1.063	1.186
3536.03	1.062	1.177
3537.09	1.067	1.178
3538.14	1.064	1.180
3539.20	1.063	1.186
3540.25	1.062	1.181
3541.31	1.057	1.180
3542.37	1.056	1.187
3543.42	1.064	1.187
3544.48	1.060	1.178
3545.53	1.056	1.179
3546.59	1.059	1.179
3547.65	1.050	1.181
3548.70	1.058	1.183
3549.76	1.059	1.185
3550.81	1.055	1.179
3551.87	1.062	1.183
3552.93	1.066	1.182
3553.98	1.066	1.179
3555.04	1.067	1.177
3556.09	1.059	1.180
3557.15	1.056	1.176
3558.21	1.064	1.177
3559.26	1.062	1.176
3560.32	1.057	1.176
3561.37	1.059	1.178
3562.43	1.049	1.183
3563.49	1.054	1.180
3564.54	1.055	1.179
3565.60	1.048	1.185
3566.65	1.049	1.176
3567.71	1.042	1.175
3568.77	1.047	1.178
3569.82	1.049	1.179
3570.88	1.044	1.183
3571.93	1.046	1.173
3572.99	1.039	1.179
3574.05	1.045	1.175
3575.10	1.046	1.179
3576.16	1.042	1.179
3577.21	1.040	1.181
3578.27	1.035	1.177
3579.33	1.049	1.174
3580.38	1.054	1.179
3581.44	1.054	1.182
3582.49	1.053	1.178
3583.55	1.046	1.176
3584.61	1.046	1.178
3585.66	1.047	1.177
3586.72	1.038	1.180
3587.77	1.043	1.178
3588.83	1.045	1.175
3589.89	1.039	1.175
3590.94	1.038	1.179
3592.00	1.035	1.172
3593.05	1.030	1.174
3594.11	1.040	1.173
3595.17	1.036	1.175
3596.22	1.032	1.175
3597.28	1.035	1.176
3598.33	1.027	1.177
3599.39	1.028	1.174
3600.45	1.034	1.175
3601.50	1.031	1.175
3602.56	1.030	1.173
3603.61	1.029	1.173
3604.67	1.025	1.173
3605.73	1.036	1.172
3606.78	1.040	1.174
3607.84	1.039	1.172
3608.89	1.042	1.173
3609.95	1.034	1.173
3611.01	1.034	1.175
3612.06	1.031	1.171
3613.12	1.032	1.172
3614.17	1.028	1.174
3615.23	1.034	1.173
3616.29	1.030	1.172
3617.34	1.027	1.174
3618.40	1.027	1.171
3619.45	1.019	1.173
3620.51	1.023	1.171
3621.57	1.026	1.172
3622.62	1.023	1.171
3623.68	1.021	1.174
3624.73	1.019	1.174
3625.79	1.013	1.171
3626.82	1.021	1.173
3627.88	1.020	1.171
3628.93	1.015	1.172
3629.99	1.017	1.170
3631.02	1.009	1.171
3632.08	1.015	1.171
3633.13	1.026	1.173
3634.19	1.025	1.171
3635.25	1.025	1.172
3636.30	1.024	1.172
3637.36	1.020	1.170
3638.41	1.018	1.171
3639.47	1.013	1.171
3640.53	1.017	1.171
3641.58	1.020	1.172
3642.64	1.015	1.174
3643.69	1.006	1.172
3644.75	1.011	1.169
3645.81	1.015	1.171
3646.86	1.008	1.170
3647.92	1.003	1.171
3648.97	0.998	1.171
3650.03	1.010	1.171
3651.09	1.007	1.173
3652.14	1.003	1.172
3653.20	1.004	1.169
3654.25	1.001	1.170
3655.31	0.998	1.171
3656.37	1.007	1.169
3657.42	1.001	1.170
3658.45	0.999	1.170
3659.51	0.997	1.163
3660.54	1.014	1.166
3661.60	1.012	1.172
3662.65	1.012	1.170
3663.71	1.005	1.171
3664.77	1.003	1.170
3665.82	1.003	1.169
3666.88	0.996	1.167
3667.93	0.997	1.167
3668.99	1.002	1.169
3670.05	0.998	1.170
3671.10	0.992	1.167
3672.16	0.992	1.167
3673.19	0.999	1.167
3674.25	0.995	1.171
3675.30	0.991	1.168
3676.36	0.990	1.163
3677.39	0.987	1.164
3678.45	0.993	1.164
3679.50	0.992	1.159
3680.56	0.986	1.164
3681.61	0.983	1.169
3682.67	0.988	1.163
3683.73	0.990	1.166
3684.78	0.984	1.162
3685.84	0.979	1.164
3686.89	0.996	1.168
3687.95	0.995	1.167
3689.00	0.995	1.162
3690.06	0.995	1.159
3691.12	0.989	1.169
3692.17	0.988	1.169
3693.21	0.985	1.166
3694.26	0.986	1.165
3695.32	0.991	1.167
3696.35	0.984	1.163
3697.41	0.979	1.160
3698.46	0.978	1.159
3699.49	0.985	1.160
3700.53	0.983	1.164
3701.58	0.974	1.165
3702.64	0.973	1.162
3703.69	0.976	1.158
3704.75	0.979	1.160
3705.81	0.972	1.162
3706.86	0.969	1.168
3707.89	0.970	1.159
3708.95	0.975	1.158
3710.01	0.975	1.163
3711.04	0.968	1.161
3712.09	0.970	1.161
3713.13	0.977	1.162
3714.18	0.984	1.163
3715.21	0.983	1.161
3716.25	0.983	1.159
3717.30	0.979	1.163
3718.36	0.975	1.159
3719.39	0.970	1.161
3720.45	0.972	1.163
3721.48	0.975	1.160
3722.53	0.978	1.160
3723.57	0.972	1.160
3724.62	0.965	1.166
3725.68	0.965	1.153
3726.71	0.964	1.159
3727.74	0.972	1.156
3728.80	0.971	1.159
3729.85	0.962	1.158
3730.91	0.960	1.156
3731.94	0.959	1.157
3732.97	0.957	1.159
3734.01	0.966	1.159
3735.06	0.965	1.159
3736.12	0.957	1.159
3737.15	0.956	1.159
3738.18	0.954	1.156
3739.21	0.957	1.158
3740.25	0.971	1.158
3741.28	0.971	1.160
3742.31	0.971	1.157
3743.34	0.973	1.158
3744.37	0.962	1.158
3745.41	0.960	1.158
3746.44	0.960	1.159
3747.47	0.960	1.157
3748.50	0.957	1.157
3749.53	0.966	1.157
3750.57	0.961	1.159
3751.60	0.952	1.150
3752.63	0.951	1.156
3753.66	0.950	1.160
3754.69	0.950	1.157
3755.73	0.955	1.157
3756.76	0.954	1.159
3757.79	0.950	1.155
3758.85	0.945	1.159
3759.89	0.946	1.156
3760.92	0.943	1.157
3761.95	0.951	1.157
3762.98	0.952	1.158
3764.01	0.948	1.158
3765.05	0.943	1.154
3766.08	0.943	1.155
3767.11	0.957	1.155
3768.14	0.959	1.157
3769.17	0.956	1.156
3770.21	0.958	1.158
3771.24	0.954	1.156
3772.27	0.951	1.156
3773.30	0.947	1.154
3774.33	0.946	1.157
3775.37	0.945	1.154
3776.43	0.945	1.155
3777.46	0.951	1.155
3778.49	0.950	1.156
3779.53	0.946	1.159
3780.56	0.944	1.154
3781.59	0.939	1.157
3782.62	0.937	1.155
3783.65	0.939	1.157
3784.69	0.937	1.154
3785.72	0.946	1.155
3786.75	0.943	1.156
3787.78	0.935	1.156
3788.81	0.932	1.154
3789.85	0.933	1.155
3790.88	0.932	1.154
3791.91	0.933	1.153
3792.94	0.940	1.152
3794.01	0.934	1.150
3795.04	0.931	1.154
3796.07	0.945	1.153
3797.10	0.947	1.149
3798.13	0.950	1.149
3799.17	0.941	1.154
3800.20	0.942	1.144
3801.23	0.936	1.150
3802.26	0.935	1.151
3803.29	0.932	1.153
3804.33	0.931	1.154
3805.36	0.937	1.154
3806.39	0.937	1.153
3807.42	0.930	1.153
3808.45	0.924	1.148
3809.49	0.924	1.153
3810.55	0.922	1.151
3811.61	0.922	1.155
3812.65	0.934	1.151
3813.68	0.930	1.151
3814.71	0.927	1.150
3815.74	0.920	1.150
3816.77	0.921	1.152
3817.81	0.921	1.147
3818.84	0.927	1.147
3819.87	0.928	1.152
3820.90	0.926	1.150
3821.93	0.937	1.147
3822.97	0.936	1.148
3824.00	0.936	1.150
3825.03	0.937	1.153
3826.06	0.924	1.143
3827.09	0.923	1.150
3828.13	0.923	1.149
3829.19	0.922	1.151
3830.22	0.921	1.148
3831.25	0.930	1.151
3832.29	0.929	1.146
3833.32	0.923	1.150
3834.35	0.917	1.146
3835.38	0.916	1.149
3836.41	0.915	1.146
3837.45	0.923	1.146
3838.48	0.922	1.144
3839.51	0.920	1.149
3840.54	0.913	1.146
3841.57	0.914	1.143
3842.61	0.914	1.151
3843.64	0.915	1.148
3844.67	0.921	1.149
3845.70	0.919	1.148
3846.77	0.915	1.143
3847.80	0.912	1.143
3848.83	0.918	1.145
3849.86	0.928	1.144
3850.89	0.927	1.142
3851.93	0.927	1.146
3852.96	0.926	1.143
3853.99	0.919	1.143
3855.02	0.918	1.146
3856.05	0.915	1.146
3857.09	0.915	1.146
3858.12	0.913	1.146
3859.15	0.916	1.146
3860.18	0.918	1.147
3861.21	0.916	1.144
3862.25	0.914	1.140
3863.28	0.910	1.141
3864.31	0.908	1.141
3865.34	0.909	1.142
3866.37	0.908	1.144
3867.41	0.914	1.141
3868.44	0.914	1.143
3869.47	0.912	1.143
3870.50	0.907	1.145
3871.53	0.905	1.143
3872.57	0.906	1.143
3873.60	0.906	1.142
3874.63	0.913	1.143
3875.66	0.912	1.142
3876.69	0.916	1.141
3877.73	0.916	1.143
3878.76	0.917	1.141
3879.79	0.916	1.140
3880.85	0.910	1.141
3881.89	0.911	1.143
3882.92	0.910	1.139
3883.95	0.909	1.139
3884.98	0.907	1.142
3886.01	0.909	1.142
3887.05	0.911	1.143
3888.08	0.909	1.141
3889.11	0.900	1.142
3890.14	0.898	1.142
3891.17	0.896	1.141
3892.21	0.894	1.142
3893.24	0.901	1.142
3894.27	0.905	1.140
3895.30	0.901	1.138
3896.33	0.893	1.139
3897.37	0.892	1.142
3898.40	0.891	1.141
3899.46	0.892	1.141
3900.49	0.903	1.133
3901.53	0.898	1.140
3902.56	0.893	1.139
3903.59	0.892	1.141
3904.62	0.911	1.135
3905.65	0.910	1.136
3906.69	0.912	1.136
3907.72	0.905	1.138
3908.75	0.905	1.142
3909.78	0.901	1.139
3910.81	0.896	1.142
3911.85	0.895	1.140
3912.88	0.892	1.142
3913.91	0.891	1.136
3914.94	0.903	1.140
3915.97	0.897	1.145
3917.04	0.890	1.142
3918.07	0.886	1.142
3919.10	0.885	1.131
3920.13	0.884	1.133
3921.17	0.884	1.138
3922.20	0.893	1.138
3923.23	0.891	1.134
3924.26	0.887	1.137
3925.29	0.880	1.134
3926.33	0.881	1.133
3927.36	0.879	1.135
3928.39	0.880	1.136
3929.42	0.892	1.143
3930.45	0.896	1.134
3931.49	0.897	1.137
3932.52	0.898	1.135
3933.55	0.898	1.132
3934.61	0.896	1.135
3935.65	0.885	1.141
3936.68	0.886	1.136
3937.71	0.885	1.135
3938.74	0.885	1.133
3939.77	0.880	1.134
3940.81	0.884	1.132
3941.84	0.890	1.132
3942.87	0.885	1.135
3943.90	0.884	1.135
3944.93	0.875	1.134
3945.97	0.874	1.134
3947.00	0.874	1.131
3948.03	0.874	1.132
3949.06	0.873	1.133
3950.09	0.883	1.131
3951.13	0.879	1.134
3952.19	0.877	1.131
3953.22	0.874	1.134
3954.25	0.869	1.132
3955.29	0.870	1.132
3956.32	0.869	1.131
3957.35	0.867	1.130
3958.38	0.869	1.138
3959.41	0.885	1.133
3960.45	0.885	1.130
3961.48	0.887	1.132
3962.51	0.888	1.133
3963.54	0.878	1.130
3964.57	0.877	1.130
3965.61	0.874	1.133
3966.64	0.873	1.133
3967.67	0.873	1.133
3968.73	0.870	1.130
3969.80	0.876	1.130
3970.83	0.875	1.132
3971.86	0.871	1.128
3972.89	0.865	1.131
3973.93	0.864	1.131
3974.96	0.863	1.130
3975.99	0.861	1.133
3977.02	0.861	1.130
3978.05	0.869	1.131
3979.09	0.867	1.126
3980.12	0.865	1.130
3981.15	0.856	1.130
3982.18	0.855	1.129
3983.21	0.856	1.129
3984.25	0.854	1.130
3985.28	0.862	1.130
3986.34	0.869	1.130
3987.37	0.872	1.130
3988.41	0.872	1.127
3989.44	0.873	1.130
3990.47	0.872	1.131
3991.50	0.862	1.130
3992.53	0.863	1.131
3993.57	0.862	1.129
3994.60	0.862	1.129
3995.63	0.860	1.131
3996.66	0.861	1.133
3997.69	0.869	1.129
3998.73	0.866	1.130
3999.76	0.863	1.129
4000.79	0.860	1.128
4001.82	0.856	1.129
4002.85	0.851	1.127
4003.92	0.849	1.131
4004.95	0.849	1.130
4005.98	0.858	1.127
4007.01	0.861	1.131
4008.05	0.856	1.128
4009.08	0.851	1.125
4010.11	0.845	1.127
4011.14	0.845	1.127
4012.17	0.843	1.126
4013.21	0.843	1.131
4014.24	0.864	1.131
4015.27	0.863	1.129
4016.30	0.864	1.129
4017.33	0.865	1.130
4018.37	0.860	1.128
4019.40	0.858	1.128
4020.43	0.854	1.128
4021.49	0.850	1.128
4022.53	0.849	1.123
4023.56	0.847	1.129
4024.59	0.846	1.128
4025.62	0.856	1.128
4026.65	0.853	1.128
4027.69	0.849	1.129
4028.72	0.847	1.129
4029.75	0.840	1.128
4030.78	0.841	1.127
4031.81	0.840	1.126
4032.85	0.840	1.129
4033.88	0.844	1.126
4034.91	0.848	1.124
4035.94	0.845	1.127
4036.97	0.844	1.125
4038.01	0.841	1.125
4039.07	0.837	1.127
4040.10	0.835	1.124
4041.13	0.854	1.123
4042.17	0.855	1.125
4043.20	0.856	1.124
4044.23	0.855	1.123
4045.26	0.850	1.129
4046.29	0.848	1.125
4047.33	0.846	1.127
4048.36	0.844	1.125
4049.39	0.839	1.124
4050.42	0.838	1.125
4051.45	0.837	1.126
4052.49	0.845	1.128
4053.52	0.842	1.125
4054.55	0.840	1.121
4055.58	0.834	1.122
4056.65	0.832	1.123
4057.68	0.831	1.122
4058.71	0.831	1.126
4059.74	0.839	1.125
4060.77	0.838	1.125
4061.81	0.835	1.125
4062.84	0.835	1.123
4063.87	0.828	1.123
4064.90	0.827	1.123
4065.93	0.827	1.123
4066.97	0.833	1.126
4068.00	0.837	1.122
4069.03	0.843	1.122
4070.06	0.842	1.122
4071.09	0.845	1.124
4072.13	0.843	1.126
4073.16	0.833	1.128
4074.22	0.832	1.124
4075.25	0.833	1.125
4076.29	0.832	1.119
4077.32	0.830	1.122
4078.35	0.836	1.127
4079.38	0.837	1.123
4080.41	0.833	1.122
4081.45	0.832	1.125
4082.48	0.832	1.123
4083.51	0.830	1.120
4084.54	0.824	1.118
4085.57	0.824	1.119
4086.61	0.823	1.119
4087.64	0.832	1.119
4088.67	0.831	1.116
4089.70	0.829	1.120
4090.73	0.826	1.121
4091.77	0.822	1.123
4092.80	0.819	1.121
4093.83	0.818	1.120
4094.86	0.820	1.116
4095.89	0.836	1.121
4096.93	0.836	1.118
4097.96	0.838	1.117
4098.99	0.839	1.125
4100.02	0.833	1.124
4101.05	0.832	1.120
4102.09	0.832	1.116
4103.12	0.827	1.116
4104.15	0.823	1.118
4105.18	0.822	1.116
4106.21	0.830	1.116
4107.25	0.831	1.116
4108.28	0.827	1.116
4109.34	0.826	1.116
4110.37	0.823	1.114
4111.41	0.821	1.117
4112.44	0.813	1.112
4113.47	0.815	1.119
4114.50	0.814	1.116
4115.53	0.826	1.112
4116.57	0.824	1.115
4117.61	0.821	1.117
4118.64	0.821	1.117
4119.67	0.818	1.117
4120.73	0.817	1.118
4121.76	0.811	1.116
4122.79	0.821	1.115
4123.82	0.832	1.116
4124.85	0.832	1.116
4125.89	0.832	1.112
4126.95	0.826	1.116
4127.98	0.826	1.119
4129.05	0.826	1.115
4130.08	0.823	1.115
4131.11	0.819	1.114
4132.14	0.813	1.116
4133.17	0.818	1.114
4134.21	0.823	1.116
4135.24	0.820	1.118
4136.27	0.817	1.116
4137.30	0.816	1.115
4138.33	0.815	1.116
4139.37	0.812	1.114
4140.40	0.805	1.114
4141.43	0.808	1.115
4142.46	0.814	1.115
4143.49	0.814	1.112
4144.56	0.811	1.113
4145.59	0.808	1.112
4146.62	0.802	1.115
4147.65	0.801	1.114
4148.69	0.810	1.114
4149.72	0.821	1.115
4150.75	0.819	1.113
4151.78	0.823	1.113
4152.81	0.822	1.113
4153.85	0.816	1.113
4154.88	0.815	1.113
4155.91	0.811	1.111
4156.94	0.807	1.113
4157.97	0.810	1.111
4159.01	0.816	1.113
4160.04	0.813	1.114
4161.10	0.812	1.114
4162.13	0.807	1.114
4163.17	0.805	1.113
4164.20	0.800	1.113
4165.23	0.803	1.113
4166.26	0.809	1.111
4167.29	0.806	1.111
4168.33	0.805	1.111
4169.36	0.801	1.110
4170.39	0.800	1.114
4171.42	0.794	1.113
4172.45	0.796	1.111
4173.49	0.806	1.111
4174.52	0.802	1.110
4175.55	0.801	1.111
4176.58	0.801	1.112
4177.61	0.810	1.112
4178.65	0.811	1.112
4179.71	0.809	1.112
4180.74	0.811	1.111
4181.77	0.799	1.113
4182.81	0.800	1.112
4183.84	0.800	1.111
4184.87	0.806	1.115
4185.90	0.810	1.111
4186.93	0.807	1.111
4187.97	0.804	1.111
4189.00	0.799	1.109
4190.03	0.794	1.107
4191.06	0.793	1.111
4192.09	0.804	1.112
4193.13	0.801	1.107
4194.16	0.797	1.113
4195.19	0.796	1.111
4196.25	0.795	1.111
4197.29	0.787	1.109
4198.32	0.787	1.108
4199.35	0.796	1.109
4200.38	0.795	1.113
4201.41	0.793	1.110
4202.45	0.791	1.109
4203.48	0.788	1.112
4204.51	0.787	1.110
4205.54	0.807	1.112
4206.57	0.806	1.111
4207.61	0.808	1.112
4208.64	0.798	1.109
4209.67	0.796	1.112
4210.70	0.796	1.109
4211.75	0.796	1.109
4212.78	0.794	1.109
4213.81	0.796	1.110
4214.87	0.795	1.112
4215.90	0.795	1.105
4216.93	0.786	1.107
4217.97	0.786	1.107
4219.00	0.794	1.105
4220.03	0.793	1.110
4221.08	0.790	1.112
4222.13	0.787	1.105
4223.16	0.786	1.110
4224.23	0.786	1.105
4225.27	0.788	1.106
4226.30	0.780	1.104
4227.33	0.780	1.109
4228.37	0.790	1.107
4229.41	0.789	1.109
4230.44	0.786	1.110
4231.50	0.785	1.104
4232.53	0.793	1.105
4233.60	0.794	1.104
4234.64	0.794	1.105
4235.67	0.795	1.100
4236.70	0.784	1.101
4237.73	0.784	1.109
4238.77	0.783	1.104
4239.80	0.784	1.102
4240.83	0.791	1.108
4241.86	0.788	1.107
4242.89	0.787	1.105
4243.93	0.785	1.103
4244.96	0.778	1.105
4245.99	0.778	1.103
4247.02	0.777	1.105
4248.05	0.784	1.105
4249.12	0.785	1.107
4250.15	0.783	1.105
4251.18	0.780	1.102
4252.21	0.779	1.103
4253.25	0.778	1.100
4254.28	0.777	1.101
4255.31	0.781	1.106
4256.34	0.775	1.100
4257.37	0.770	1.100
4258.41	0.773	1.101
4259.44	0.786	1.103
4260.47	0.790	1.103
4261.50	0.790	1.100
4262.53	0.793	1.103
4263.57	0.790	1.102
4264.60	0.785	1.100
4265.63	0.785	1.100
4266.69	0.777	1.101
4267.73	0.777	1.100
4268.76	0.776	1.102
4269.79	0.787	1.100
4270.82	0.783	1.101
4271.85	0.778	1.104
4272.89	0.775	1.100
4273.92	0.774	1.101
4274.95	0.771	1.100
4275.98	0.765	1.099
4277.01	0.766	1.101
4278.05	0.775	1.105
4279.08	0.771	1.098
4280.11	0.769	1.100
4281.14	0.768	1.102
4282.17	0.763	1.101
4283.21	0.760	1.101
4284.27	0.759	1.098
4285.30	0.764	1.102
4286.33	0.769	1.100
4287.37	0.772	1.102
4288.40	0.774	1.100
4289.43	0.774	1.102
4290.46	0.778	1.099
4291.49	0.768	1.100
4292.53	0.762	1.101
4293.56	0.761	1.098
4294.59	0.761	1.096
4295.62	0.761	1.097
4296.65	0.766	1.099
4297.69	0.770	1.098
4298.72	0.766	1.099
4299.75	0.763	1.101
4300.78	0.761	1.097
4301.85	0.760	1.093
4302.88	0.755	1.099
4303.91	0.755	1.100
4304.94	0.754	1.098
4305.97	0.759	1.098
4307.01	0.761	1.098
4308.04	0.758	1.102
4309.07	0.758	1.100
4310.10	0.756	1.098
4311.13	0.752	1.098
4312.17	0.752	1.097
4313.20	0.751	1.093
4314.23	0.754	1.096
4315.26	0.770	1.093
4316.29	0.766	1.096
4317.33	0.769	1.097
4318.39	0.769	1.097
4319.45	0.769	1.093
4320.49	0.764	1.099
4321.52	0.761	1.098
4322.55	0.758	1.095
4323.58	0.755	1.096
4324.61	0.754	1.095
4325.65	0.757	1.098
4326.68	0.759	1.093
4327.71	0.757	1.095
4328.74	0.754	1.095
4329.77	0.752	1.091
4330.81	0.746	1.096
4331.84	0.746	1.095
4332.87	0.743	1.094
4333.90	0.753	1.094
4334.93	0.753	1.095
4335.97	0.753	1.097
4337.03	0.752	1.097
4338.06	0.749	1.095
4339.09	0.745	1.095
4340.13	0.742	1.094
4341.16	0.743	1.096
4342.19	0.742	1.091
4343.22	0.756	1.092
4344.25	0.761	1.090
4345.29	0.759	1.091
4346.32	0.761	1.093
4347.35	0.758	1.092
4348.38	0.754	1.096
4349.41	0.754	1.095
4350.45	0.747	1.093
4351.48	0.748	1.091
4352.51	0.746	1.093
4353.54	0.751	1.091
4354.57	0.754	1.094
4355.61	0.751	1.089
4356.64	0.748	1.094
4357.67	0.746	1.096
4358.70	0.745	1.091
4359.73	0.739	1.097
4360.77	0.739	1.090
4361.80	0.749	1.090
4362.83	0.747	1.091
4363.86	0.745	1.093
4364.89	0.742	1.092
4365.93	0.742	1.092
4366.96	0.743	1.090
4367.99	0.744	1.093
4369.02	0.741	1.095
4370.05	0.735	1.089
4371.09	0.743	1.088
4372.15	0.754	1.096
4373.18	0.753	1.089
4374.21	0.754	1.089
4375.25	0.750	1.086
4376.28	0.748	1.090
4377.31	0.747	1.089
4378.34	0.746	1.091
4379.37	0.746	1.088
4380.41	0.743	1.089
4381.46	0.745	1.093
4382.49	0.737	1.090
4383.53	0.733	1.089
4384.56	0.733	1.093
4385.59	0.737	1.089
4386.62	0.744	1.086
4387.65	0.741	1.086
4388.69	0.739	1.086
4389.72	0.738	1.096
4390.75	0.737	1.089
4391.78	0.735	1.086
4392.81	0.737	1.084
4393.87	0.734	1.089
4394.91	0.730	1.089
4395.95	0.729	1.085
4396.99	0.730	1.086
4398.03	0.742	1.086
4399.07	0.750	1.085
